>compound 
>formula C16H10N2O2
>parentmass 263.0815085703
>ionization [M + H]+
>instrumentation Unknown (LCMS)
>source file:/Users/fanzhoukong/Documents/GitHub/Libgen/data/EAD_PFP/0_unknown_/spectrum.ms
>quality UNKNOWN

>ms2peaks
50.015827 147.0
51.024046 278.0
51.939185 7.0
52.028894 52.0
53.038543 56.0
54.031972 10.0
55.054241 121.0
55.93286 7.0
56.050879 20.0
56.058949 26.0
56.964738 10.0
57.069038 29.0
57.935187 7.0
58.993566 7.0
61.011213 24.0
62.015402 47.0
63.022341 230.0
64.02563 10.0
64.03033 24.0
65.040008 1012.0
66.042447 63.0
67.052556 101.0
68.050125 16.0
68.994833 137.0
72.934969 9.0
74.008077 66.0
75.021136 31.0
76.031685 46.0
77.038664 472.0
78.043622 113.0
79.051611 178.0
80.04853 38.0
81.067579 28.0
81.069349 78.0
82.062007 6.0
83.086606 12.0
84.001705 6.0
85.010294 12.0
87.021791 10.0
88.02992 7.0
89.039239 181.0
90.039427 8.0
90.046867 35.0
91.055496 904.0
92.015225 64.0
92.035905 102.0
92.051875 33.0
92.061275 14.0
93.056524 10.0
93.063134 36.0
94.066622 63.0
95.066881 10.0
95.085991 47.0
95.95053 9.0
97.948118 7.0
99.993705 11.0
100.022115 19.0
101.004244 68.0
102.047573 81.0
103.053491 109.0
104.05135 29.0
105.069089 68.0
106.064528 69.0
107.072776 7.0
107.083926 6.0
111.000662 30.0
112.01027 8.0
112.999459 22.0
114.034838 19.0
115.052876 442.0
116.058545 80.0
117.063294 173.0
118.064923 77.0
119.060122 23.0
119.069742 43.0
119.086852 10.0
120.07454 11.0
121.087859 9.0
121.101869 8.0
122.094618 7.0
126.047813 64.0
126.902722 8.0
127.055062 274.0
128.06077 358.0
129.069339 99.0
130.065098 185.0
130.992927 19.0
131.060197 9.0
131.066927 36.0
131.086007 12.0
132.073745 42.0
133.075354 6.0
133.096824 10.0
134.083023 10.0
134.095503 10.0
139.054747 41.0
140.049966 21.0
141.068524 72.0
141.929683 6.0
142.062753 31.0
143.073352 64.0
144.080491 92.0
145.064009 22.0
145.072289 13.0
145.091159 7.0
146.059188 10.0
147.055357 12.0
147.965566 17.0
149.133254 7.0
150.045043 26.0
150.127853 7.0
151.054712 42.0
152.060511 115.0
153.059959 33.0
153.069649 93.0
154.065098 316.0
155.047937 13.0
155.058907 28.0
155.074777 58.0
155.082087 19.0
156.066916 16.0
156.080376 49.0
156.950525 8.0
157.073275 31.0
157.089234 57.0
158.084113 23.0
158.093963 28.0
159.091992 24.0
160.113021 17.0
161.08383 7.0
162.996727 15.0
163.055527 21.0
164.059036 23.0
165.069425 125.0
166.070263 45.0
167.075402 73.0
168.079761 80.0
168.91395 9.0
169.0795 173.0
170.073248 28.0
170.094978 20.0
171.091687 832.0
172.075916 958.0
173.080995 12.0
174.048944 9.0
175.011812 6.0
175.146622 8.0
176.063111 17.0
176.9468 15.0
177.05238 16.0
177.06672 10.0
177.1293 7.0
178.073179 62.0
179.062827 26.0
179.074627 13.0
180.080186 40.0
181.075395 214.0
182.064094 182.0
183.066092 28.0
183.079352 16.0
183.092592 32.0
184.065511 32.0
184.114691 6.0
184.96104 9.0
185.10896 47.0
186.124629 7.0
187.081437 8.0
188.059486 5.0
189.048195 13.0
189.068405 30.0
190.070554 17.0
191.003583 41.0
191.075342 8.0
191.084812 23.0
192.001331 14.0
192.067851 9.0
192.98263 61.0
193.08606 6.0
193.978699 8.0
194.096069 19.0
195.088167 15.0
196.075946 83.0
197.073085 22.0
197.081345 25.0
198.038294 37.0
198.050704 10.0
198.085174 8.0
199.087403 1187.0
200.056151 19.0
200.071381 21.0
201.07168 10.0
202.032689 15.0
202.074469 26.0
203.082548 12.0
203.142568 8.0
204.076326 8.0
205.017845 6.0
205.090785 9.0
205.156725 12.0
206.093694 12.0
207.031373 104.0
208.031941 18.0
208.106841 7.0
209.01793 13.0
209.03209 11.0
210.037479 37.0
211.085128 54.0
212.081176 8.0
213.105285 59.0
214.108924 6.0
215.086203 14.0
216.048442 357.0
217.07487 11.0
218.083489 6.0
220.110617 8.0
221.114575 6.0
224.040492 5.0
225.04309 20.0
227.037288 6.0
228.048047 186.0
229.099605 7.0
230.094124 10.0
231.110153 5.0
234.056289 8.0
234.066769 9.0
235.076518 5.0
235.091548 99.0
241.093921 6.0
242.985268 9.0
244.046187 6.0
245.072606 167.0
246.059674 6.0
247.150393 6.0
248.984921 14.0
250.967428 7.0
261.983245 7.0
263.088003 267.0
263.107083 31.0
263.126123 11.0

