>compound 
>formula C50H84O22
>parentmass 1054.57924533786
>ionization [M + H3N + H]+
>instrumentation Unknown (LCMS)
>source file:/Users/fanzhoukong/Documents/GitHub/Libgen/data/EAD_PFP/0_unknown_/spectrum.ms
>quality UNKNOWN

>ms2peaks
125.034491 22.0
127.059246 137.0
128.061653 305.0
129.06687 250.0
130.069328 138.0
131.084625 211.0
133.10107 420.0
135.120404 173.0
139.042894 114.0
141.064718 186.0
142.079945 91.0
143.087103 125.0
144.09074 24.0
145.102627 274.0
149.138866 22.0
163.150159 114.0
165.070214 364.0
166.076101 73.0
167.081248 96.0
168.071666 165.0
169.103223 55.0
170.11236 73.0
171.102727 209.0
171.120667 192.0
173.135912 414.0
175.144787 332.0
176.062584 99.0
178.077869 222.0
179.083246 150.0
181.099891 193.0
183.080075 173.0
184.128723 64.0
185.13504 142.0
187.145144 418.0
188.156972 60.0
189.160739 1244.0
190.171236 135.0
191.002954 111.0
191.183074 147.0
192.083501 73.0
192.979269 226.0
193.093598 274.0
195.062893 34.0
195.116253 28.0
197.117808 131.0
199.140642 87.0
201.161287 142.0
202.076544 97.0
203.175391 66.0
207.033471 138.0
209.130505 37.0
211.14415 92.0
213.160295 83.0
215.184579 208.0
217.072634 38.0
219.079109 83.0
222.10834 23.0
227.092537 57.0
229.186221 117.0
231.089926 64.0
232.112634 55.0
239.086325 258.0
239.098435 742.0
241.194899 158.0
249.161738 46.0
250.981953 46.0
255.211612 198.0
257.102466 486.0
263.14096 23.0
265.021025 72.0
269.228624 341.0
271.244819 5331.0
272.249276 86.0
275.111268 708.0
279.214557 23.0
281.049272 132.0
287.233246 108.0
287.241576 251.0
289.24734 198.0
292.113382 95.0
293.12049 3247.0
295.225774 155.0
297.220339 53.0
299.202993 65.0
301.802876 23.0
305.248667 50.0
307.249302 23.0
310.145994 117.0
311.135341 785.0
315.23362 38.0
317.210795 86.0
321.118775 56.0
327.260358 39.0
328.242865 85.0
329.249973 113.0
333.204342 107.0
335.222677 245.0
341.25269 56.0
353.245668 63.0
355.262783 46.0
363.267311 26.0
367.140621 232.0
373.270124 75.0
379.251948 24.0
381.280653 362.0
383.259198 40.0
385.146703 368.0
389.304741 24.0
398.281867 51.0
399.289365 160.0
403.166734 1919.0
415.286492 125.0
416.287249 79.0
417.295236 1094.0
421.162356 60.0
421.176426 472.0
432.285986 24.0
433.296813 124.0
435.305658 144.0
435.313838 646.0
439.179217 2982.0
439.189467 1891.0
447.267786 24.0
449.3004 123.0
453.325259 43.0
457.190029 1193.0
472.201919 47.0
475.3043 126.0
481.277304 47.0
483.308189 54.0
489.285613 476.0
491.339837 36.0
507.330214 47.0
513.194249 160.0
527.331231 97.0
529.215806 24.0
531.20982 170.0
545.357792 182.0
549.196342 75.0
549.223932 974.0
561.331319 24.0
562.350667 80.0
563.350054 521.0
567.242013 244.0
575.352832 24.0
579.354341 24.0
581.362705 444.0
583.23251 28.0
585.240435 3639.0
593.304253 162.0
598.37126 24.0
599.378157 96.0
603.228797 24.0
603.245637 619.0
612.828191 24.0
621.364908 52.0
627.354642 67.0
653.385032 25.0
659.255066 43.0
671.365874 27.0
673.392908 128.0
677.239518 25.0
691.39787 143.0
693.408485 25.0
695.279939 497.0
708.401304 48.0
709.413322 323.0
709.426321 643.0
713.282761 76.0
715.676065 25.0
726.421636 64.0
727.419983 425.0
729.524658 25.0
731.293143 1052.0
744.457107 165.0
745.449115 189.0
749.297494 308.0
755.429248 22.0
760.453714 51.0
774.478757 25.0
832.7225 22.0
837.478408 115.0
855.485319 117.0
865.442262 22.0
873.489781 343.0
891.494492 327.0
906.503612 101.0
908.519167 107.0
919.488987 25.0
936.507862 233.0
996.53407 62.0
1001.537717 78.0
1018.526991 26.0
1018.539501 126.0
1019.537059 234.0
1037.53897 111.0
1037.55789 372.0
1047.537233 26.0
1052.58141 95.0
1053.576397 393.0
1054.571874 4138.0
1054.594214 5145.0

