>compound 
>formula C21H20O10
>parentmass 455.0948678403
>ionization [M + Na]+
>instrumentation Unknown (LCMS)
>source file:/Users/fanzhoukong/Documents/GitHub/Libgen/data/EAD_PFP/0_unknown_/spectrum.ms
>quality UNKNOWN

>ms2peaks
50.015107 187.0
51.021916 498.0
52.026744 51.0
52.030984 73.0
53.038513 97.0
54.030502 11.0
55.054931 236.0
56.044979 35.0
57.070488 41.0
57.933667 14.0
60.985163 61.0
62.016142 40.0
63.023081 311.0
64.02873 69.0
65.039178 1333.0
66.037627 52.0
67.054116 262.0
68.025035 27.0
68.994793 128.0
71.012671 12.0
73.006889 11.0
74.010567 29.0
75.015996 71.0
75.026186 43.0
76.030785 116.0
77.039484 751.0
78.043582 290.0
79.053311 470.0
80.05024 93.0
81.070179 108.0
82.065507 37.0
83.036566 13.0
83.084776 13.0
86.007602 15.0
89.040109 212.0
90.041237 34.0
91.055436 1695.0
92.056525 195.0
93.050804 63.0
93.067814 89.0
94.063712 32.0
95.060141 22.0
95.083071 43.0
95.94952 28.0
96.08679 23.0
97.024359 33.0
97.949998 12.0
98.094507 10.0
99.990705 19.0
102.046523 94.0
103.049451 140.0
104.0473 27.0
105.068019 120.0
106.070528 38.0
107.074746 39.0
108.079625 36.0
109.063614 17.0
109.087144 29.0
110.996462 22.0
113.002519 51.0
114.034778 27.0
115.053856 717.0
116.057425 89.0
117.060044 132.0
118.055273 50.0
118.068043 87.0
119.071812 72.0
119.082502 60.0
120.07983 16.0
121.048989 31.0
121.072699 35.0
121.097489 30.0
122.095628 10.0
124.110735 14.0
125.000684 16.0
126.048833 44.0
127.051672 64.0
128.06292 245.0
129.067039 101.0
130.068378 62.0
131.064607 40.0
131.085927 30.0
132.017386 20.0
132.060155 19.0
133.016524 24.0
133.092224 18.0
135.085302 21.0
139.053497 88.0
140.051046 19.0
141.067284 129.0
142.062673 16.0
142.073193 36.0
143.031102 46.0
143.072122 46.0
144.079241 52.0
145.088719 20.0
145.972688 21.0
146.094618 24.0
147.963086 24.0
149.042264 18.0
150.047363 21.0
151.040172 27.0
151.053422 76.0
152.062851 156.0
153.059869 21.0
153.067129 67.0
154.067448 78.0
155.063697 55.0
155.077127 25.0
156.081506 42.0
157.080555 40.0
157.087924 35.0
158.095113 53.0
159.093152 44.0
161.09244 21.0
162.995387 11.0
163.011657 18.0
163.052927 44.0
164.060196 29.0
165.073095 180.0
166.063853 20.0
166.071433 19.0
167.066442 47.0
167.072772 58.0
168.077121 41.0
169.07685 35.0
169.09597 25.0
170.103808 24.0
171.062117 16.0
172.105376 32.0
173.068005 20.0
175.147812 14.0
176.057811 27.0
177.0588 13.0
178.075689 98.0
179.083697 75.0
180.077456 34.0
181.071335 30.0
182.071914 14.0
182.093064 24.0
182.188263 13.0
183.080572 15.0
184.099961 12.0
189.019805 17.0
189.068295 56.0
190.070424 36.0
191.004833 45.0
192.070461 17.0
192.97162 21.0
192.9798 114.0
194.095949 17.0
195.098997 27.0
196.093656 24.0
200.057411 18.0
201.06739 17.0
202.078529 21.0
203.068478 13.0
203.142468 34.0
204.081806 32.0
205.156605 13.0
206.082324 28.0
207.032673 92.0
208.033231 23.0
208.113791 19.0
209.01923 46.0
209.10278 16.0
210.118289 6.0
213.070845 15.0
215.084653 22.0
216.082882 23.0
217.08916 15.0
219.105898 18.0
221.111545 18.0
225.04296 32.0
227.100638 6.0
231.081733 14.0
233.09946 29.0
234.125089 17.0
242.983598 21.0
245.098546 19.0
247.128673 14.0
248.987871 15.0
255.073233 8.0
258.08603 13.0
265.007621 13.0
265.020351 45.0
266.03561 13.0
268.996566 16.0
281.051941 140.0
282.04968 23.0
283.060759 47.0
284.058777 12.0
293.044426 16.0
298.05467 19.0
299.056709 43.0
305.046211 17.0
306.05136 17.0
321.028762 27.0
333.023317 13.0
335.053644 207.0
345.034012 11.0
358.039276 17.0
365.063467 43.0
373.177047 6.0
405.068818 38.0
409.071193 9.0
426.087902 10.0
432.106624 13.0
436.072319 18.0
437.079368 34.0
437.089628 26.0
437.216608 22.0
454.086827 158.0
455.093566 1270.0
455.097746 4267.0

