>compound 
>formula C26H36O8
>parentmass 499.23023911684
>ionization [M + Na]+
>instrumentation Unknown (LCMS)
>source file:/Users/fanzhoukong/Documents/GitHub/Libgen/data/EAD_PFP/0_unknown_/spectrum.ms
>quality UNKNOWN

>ms2peaks
115.05479 148.0
116.060467 20.0
117.062035 28.0
117.070515 74.0
119.08771 118.0
120.088277 29.0
121.102735 119.0
123.04662 21.0
125.096915 22.0
126.047563 23.0
127.05591 100.0
128.062728 238.0
129.064625 74.0
130.065943 52.0
131.08686 43.0
145.100256 14.0
145.103796 26.0
147.115601 67.0
149.101786 62.0
150.048274 38.0
151.054331 39.0
151.110921 82.0
152.062539 255.0
153.069266 232.0
154.068364 146.0
155.090221 98.0
156.072629 55.0
156.089759 103.0
157.088826 99.0
157.101116 91.0
158.082444 65.0
159.096511 81.0
160.086559 90.0
161.057277 45.0
161.093337 185.0
162.136954 23.0
163.072592 66.0
163.113872 39.0
164.066119 97.0
165.073997 212.0
165.082797 443.0
166.069794 70.0
167.073672 90.0
168.080559 49.0
169.073927 35.0
169.101957 51.0
170.093204 30.0
171.104022 107.0
173.102397 52.0
174.136314 25.0
175.063132 53.0
175.116282 69.0
176.06258 36.0
177.079227 42.0
178.059575 30.0
178.079185 143.0
179.088512 42.0
180.07573 50.0
180.08886 98.0
181.076177 86.0
182.095265 76.0
183.103962 140.0
184.11943 27.0
185.060428 40.0
187.076843 27.0
187.123732 60.0
189.069158 106.0
189.088018 36.0
190.057785 26.0
190.998913 53.0
191.084233 135.0
192.05095 25.0
192.07947 31.0
192.984738 71.0
193.103158 49.0
194.096805 22.0
194.109095 32.0
195.095753 59.0
196.11098 42.0
197.102708 95.0
198.088665 25.0
199.114403 66.0
201.159938 23.0
202.069626 53.0
203.087463 59.0
203.144703 69.0
204.078461 21.0
205.102738 61.0
206.087386 43.0
207.033503 100.0
208.041141 68.0
209.093718 38.0
209.133378 33.0
211.117143 57.0
211.137063 77.0
213.054509 35.0
213.126018 45.0
215.134344 31.0
217.102999 68.0
219.112514 34.0
221.081779 14.0
221.191029 38.0
223.096414 37.0
223.143234 41.0
224.089561 36.0
225.109899 148.0
227.070434 99.0
229.101749 70.0
229.125469 50.0
231.134654 43.0
233.155599 40.0
234.103407 39.0
235.125244 51.0
235.162814 53.0
237.121289 63.0
237.155989 33.0
239.151504 72.0
241.153879 129.0
242.076637 22.0
243.120315 17.0
243.182934 42.0
245.08397 277.0
246.121787 45.0
247.097125 46.0
247.130995 46.0
248.112942 22.0
249.1154 54.0
249.15406 23.0
251.165185 58.0
253.19063 103.0
255.092765 32.0
255.141265 71.0
255.177255 19.0
257.15124 34.0
259.096545 142.0
259.167495 22.0
261.11567 30.0
263.125125 64.0
265.15827 47.0
265.19495 33.0
267.131956 22.0
269.19655 38.0
271.152946 39.0
271.211015 40.0
272.207323 29.0
273.160141 47.0
275.091866 819.0
276.096893 34.0
277.139621 45.0
279.134426 45.0
281.187311 52.0
282.045459 25.0
283.166946 70.0
284.140364 20.0
287.181896 40.0
289.195801 29.0
291.119776 34.0
291.184966 52.0
293.162501 85.0
295.165277 41.0
297.146132 48.0
299.203077 276.0
301.134522 45.0
301.187232 41.0
303.099457 66.0
303.125057 23.0
305.199152 44.0
307.161827 79.0
309.149732 37.0
310.1461 27.0
311.163097 101.0
311.169997 148.0
313.155222 68.0
315.118927 30.0
315.191987 83.0
317.132412 75.0
317.188232 75.0
319.218797 31.0
320.227745 42.0
321.180343 38.0
323.174298 53.0
325.146153 29.0
325.176183 55.0
327.148838 64.0
329.141663 168.0
331.185108 56.0
333.175863 27.0
337.189673 72.0
339.194738 100.0
341.144253 85.0
343.170128 55.0
345.262043 44.0
347.170489 44.0
347.194228 38.0
351.184849 47.0
352.195256 22.0
353.175844 65.0
353.207124 176.0
355.153989 48.0
355.211209 63.0
357.133964 26.0
361.123454 94.0
365.166904 92.0
367.161429 30.0
367.189569 95.0
367.221489 59.0
369.136894 35.0
369.183954 87.0
369.200884 110.0
371.187489 41.0
373.247564 31.0
375.229829 19.0
377.204045 52.0
379.17959 52.0
381.202385 263.0
382.178482 59.0
382.209122 33.0
383.22292 1137.0
385.160325 42.0
389.243045 36.0
390.204193 36.0
393.164695 30.0
393.201595 53.0
394.210403 71.0
395.17961 76.0
395.19713 155.0
395.22246 170.0
396.224108 54.0
397.191875 68.0
397.195785 267.0
399.144661 25.0
399.23667 55.0
401.149326 52.0
401.161106 102.0
404.245508 56.0
409.180556 60.0
410.203713 59.0
411.216191 363.0
413.177246 63.0
413.233006 63.0
417.259366 31.0
421.192676 43.0
423.179361 537.0
425.196967 507.0
427.178862 76.0
427.213292 82.0
431.245992 34.0
432.286179 43.0
435.267012 41.0
435.289502 61.0
437.237397 51.0
438.194525 149.0
439.204042 529.0
439.212252 2836.0
440.21469 133.0
441.189477 197.0
442.181815 23.0
443.204152 133.0
445.270947 87.0
449.234167 29.0
449.259067 49.0
453.279567 30.0
453.300437 87.0
455.206683 468.0
457.206958 48.0
457.217458 151.0
463.240513 25.0
463.291113 188.0
463.316413 52.0
464.31222 31.0
465.315428 40.0
467.200153 65.0
469.199018 61.0
469.226608 66.0
471.229783 260.0
481.275378 82.0
481.294728 254.0
481.305468 243.0
482.350506 41.0
483.196424 736.0
484.211191 35.0
497.213879 114.0
497.537208 49.0
497.578718 93.0
498.217017 55.0
498.236707 44.0
498.776925 27.0
499.243044 13914.0

