>compound 
>formula C17H16O8
>parentmass 349.09179847224004
>ionization [M + H]+
>instrumentation Unknown (LCMS)
>source file:/Users/fanzhoukong/Documents/GitHub/Libgen/data/EAD_PFP/0_unknown_/spectrum.ms
>quality UNKNOWN

>ms2peaks
91.056169 22.0
121.023816 74.0
127.035806 114.0
127.052366 201.0
127.055676 211.0
128.060284 204.0
129.064392 63.0
130.041151 63.0
131.048489 169.0
131.056339 287.0
132.064217 33.0
134.996052 47.0
137.013588 57.0
139.059965 22.0
145.063424 105.0
145.070504 171.0
149.028567 41.0
149.063257 37.0
150.031205 122.0
150.051605 166.0
151.038423 170.0
152.058652 48.0
152.065922 217.0
153.07022 123.0
155.043606 226.0
155.047266 232.0
155.053366 349.0
156.063805 157.0
157.041903 61.0
157.048053 189.0
157.066473 425.0
158.036631 427.0
158.055101 138.0
159.049309 2073.0
160.057788 626.0
161.019726 97.0
161.048326 356.0
161.063236 409.0
162.033184 58.0
162.070604 70.0
163.032302 259.0
163.043542 260.0
164.0395 80.0
164.04327 165.0
165.017079 67.0
165.058619 596.0
165.074979 109.0
166.030407 148.0
166.087207 76.0
167.037935 172.0
167.048065 168.0
167.064535 75.0
168.062513 316.0
169.064742 1133.0
170.05972 188.0
170.06995 269.0
171.047358 3455.0
172.053306 7165.0
173.060895 4776.0
174.070133 1021.0
175.064151 193.0
175.077121 648.0
176.046729 171.0
177.056797 168.0
177.065917 113.0
177.101117 23.0
179.039734 106.0
180.060982 91.0
180.075432 97.0
181.06668 1465.0
182.051369 162.0
182.072519 173.0
183.046697 603.0
184.055365 7236.0
185.062813 2287.0
186.023542 148.0
186.032912 430.0
186.044942 723.0
186.063642 223.0
187.04842 1288.0
187.07388 441.0
188.049218 3055.0
189.016356 76.0
189.043286 210.0
189.111976 120.0
190.035895 91.0
190.064265 607.0
191.024363 40.0
191.036533 77.0
193.045709 51.0
195.029806 81.0
195.047596 146.0
195.089996 60.0
196.054454 102.0
197.063912 2006.0
198.07183 1358.0
199.068509 2995.0
200.051047 22672.0
201.059625 38452.0
202.065163 2100.0
203.041092 254.0
203.067632 664.0
203.082982 500.0
204.04039 87.0
204.08096 47.0
204.11037 87.0
204.606089 121.0
205.051938 1138.0
205.775007 61.0
206.068796 121.0
208.053563 67.0
209.059421 448.0
210.050679 85.0
210.066289 332.0
210.452659 125.0
211.041417 297.0
211.049957 354.0
211.059927 254.0
211.068457 237.0
212.048766 4017.0
213.041354 852.0
213.054214 2249.0
214.041972 1562.0
214.053452 1481.0
214.069212 367.0
214.597001 71.0
215.07083 15358.0
216.063239 3187.0
216.821317 75.0
217.049297 193.0
217.059377 191.0
217.079597 147.0
217.095487 184.0
217.995645 50.0
219.028113 73.0
219.077413 74.0
219.247093 23.0
221.04215 49.0
221.471999 23.0
223.030266 34.0
224.046735 45.0
224.090724 102.0
225.033183 210.0
225.059623 843.0
226.067451 1985.0
226.7691 51.0
227.076039 20895.0
228.048417 38294.0
229.054006 30088.0
230.061794 1352.0
230.693723 99.0
231.065842 228.0
231.088182 405.0
231.106042 100.0
231.112012 245.0
231.465081 58.0
232.05417 83.0
232.765059 143.0
233.083489 68.0
234.160077 23.0
235.072365 34.0
236.596322 104.0
237.030472 77.0
238.02542 109.0
238.06925 425.0
238.07984 179.0
239.037598 531.0
239.048198 326.0
240.045846 1517.0
240.054956 1359.0
240.508985 65.0
241.054694 401.0
241.063824 1078.0
241.088164 1005.0
241.564484 108.0
242.029093 5153.0
243.065011 35113.0
244.080179 29307.0
245.048387 205.0
245.057587 180.0
245.080587 389.0
246.064606 143.0
246.575055 44.0
247.087574 77.0
248.935761 97.0
251.051557 113.0
252.031915 138.0
253.028223 114.0
253.054703 337.0
254.059281 680.0
254.6389 49.0
255.0721 30113.0
256.074388 31194.0
257.050396 49003.0
258.054974 1143.0
258.670633 50.0
259.105693 859.0
259.113563 747.0
260.030561 174.0
260.044751 158.0
260.35764 51.0
261.040929 62.0
261.078929 134.0
262.270607 51.0
263.625615 23.0
266.1239 44.0
266.734709 63.0
267.008389 177.0
267.032379 206.0
268.030607 150.0
268.054677 146.0
269.041955 408.0
269.067685 1154.0
269.771964 63.0
270.069693 365.0
270.090623 141.0
270.735002 85.0
271.063921 40715.0
272.06966 89804.0
273.085348 2761.0
273.519367 59.0
274.080216 133.0
278.345799 23.0
284.022829 5409.0
284.036009 37961.0
285.091977 475.0
286.078635 402.0
287.095233 53144.0
298.065124 616.0
299.057042 58032.0
320.060875 1782.0
331.079565 64.0
336.865595 23.0
340.427779 97.0
342.757945 23.0

