>compound 
>formula C13H14N2O3
>parentmass 247.10772331879
>ionization [M + H]+
>instrumentation Unknown (LCMS)
>source file:/Users/fanzhoukong/Documents/GitHub/Libgen/data/EAD_PFP/0_unknown_/spectrum.ms
>quality UNKNOWN

>ms2peaks
50.016206 163.0
51.024413 500.0
53.001807 20.0
55.016071 44.0
55.018981 118.0
55.054591 24.0
57.022766 34.0
59.04884 14.0
60.045157 107.0
61.009244 37.0
62.014181 47.0
63.022658 334.0
65.035573 131.0
65.040313 295.0
66.03718 26.0
67.054457 52.0
68.994311 54.0
70.030748 21.0
71.052625 13.0
74.023517 348.0
75.024794 172.0
76.031081 136.0
77.042358 2786.0
78.044735 147.0
79.051852 86.0
79.056212 75.0
80.04264 9.0
81.046647 25.0
81.074867 21.0
84.046818 37.0
84.971675 19.0
87.022 19.0
88.039317 1307.0
89.039434 1764.0
90.048921 1358.0
91.055678 2203.0
92.047365 38.0
93.057642 50.0
95.050816 100.0
96.093733 7.0
100.036962 34.0
101.038849 197.0
102.048696 653.0
103.054613 3024.0
104.049481 63.0
105.041098 35.0
105.070218 269.0
106.066665 59.0
107.055662 22.0
109.102666 24.0
112.013468 22.0
112.039398 59.0
113.046415 53.0
114.039102 51.0
114.048522 191.0
114.68338 39.0
115.057149 7509.0
116.047006 219.0
116.051226 863.0
116.651424 9.0
117.062303 9660.0
117.681041 28.0
117.701231 14.0
118.06818 9434.0
118.702369 19.0
119.050568 18.0
119.067667 41.0
119.087977 24.0
119.206667 37.0
120.020925 30.0
121.017852 21.0
121.100842 13.0
126.033537 36.0
126.047837 61.0
127.056185 262.0
128.051922 1358.0
129.061569 577.0
129.631997 34.0
130.068456 7443.0
131.061333 103.0
131.082643 216.0
131.794701 42.0
132.08499 7177.0
133.056137 96.0
133.060657 118.0
133.795045 65.0
134.060334 10.0
139.04429 34.0
140.048767 256.0
141.060344 458.0
141.607703 11.0
142.068551 4512.0
143.075659 2604.0
143.611647 14.0
144.083966 5103.0
144.720824 24.0
145.056883 69.0
145.071043 65.0
145.328362 20.0
145.565831 58.0
145.585931 77.0
146.0686 12162.0
146.874788 56.0
147.011347 51.0
147.058877 55.0
147.076677 24.0
147.098077 49.0
147.277536 32.0
147.559426 24.0
147.764165 53.0
148.066794 16.0
148.299314 22.0
148.661013 17.0
148.822292 23.0
149.059001 13.0
149.133181 17.0
150.047359 28.0
150.485667 31.0
151.010076 10.0
151.043786 19.0
152.064043 85.0
152.697701 8.0
153.06955 81.0
153.888737 37.0
154.067427 173.0
155.053904 35.0
155.063674 83.0
155.078324 100.0
156.085151 1204.0
157.078068 635.0
157.547427 24.0
158.085205 3326.0
158.562244 72.0
158.581984 165.0
158.854723 27.0
159.098053 15711.0
160.08189 3201.0
167.06384 50.0
168.070697 79.0
169.078054 5742.0
169.536933 33.0
170.069241 7095.0
171.073578 30.0
171.267098 29.0
171.752036 41.0
172.079565 86.0
172.089865 113.0
173.100132 24.0
174.07459 81.0
174.088809 276.0
175.835514 51.0
181.085719 28.0
182.082367 25.0
183.092354 1553.0
184.079891 2055.0
185.062058 46.0
185.082068 162.0
185.091388 71.0
186.045535 40.0
186.056225 74.0
186.094975 27.0
187.087872 5242.0
187.479331 51.0
188.078039 11120.0
189.078906 87.0
189.178606 38.0
189.463005 16.0
190.360753 62.0
191.045271 90.0
191.539809 42.0
192.583816 166.0
192.755136 14.0
196.847324 8.0
200.102945 39.0
201.104692 5212.0
202.085279 47.0
203.044526 17.0
204.042413 16.0
205.10168 565.0
207.032445 25.0
208.60563 8.0
211.090443 104.0
212.06937 12.0
217.015296 12.0
219.853018 25.0
221.090855 10.0
223.099689 24.0
224.174966 30.0
225.705911 10.0
225.963541 16.0
227.432606 8.0
229.099132 215.0
230.077309 45.0
230.080289 122.0
231.029286 31.0
232.038423 29.0
232.048883 22.0
232.93762 8.0
236.136121 8.0
237.257418 8.0
238.426775 8.0
240.06322 11.0
242.824442 8.0
243.761099 14.0
247.05283 33.0

