>compound 
>formula C15H20O4
>parentmass 287.1253801228801
>ionization [M + Na]+
>instrumentation Unknown (LCMS)
>source file:/Users/fanzhoukong/Documents/GitHub/Libgen/data/EAD_PFP/0_unknown_/spectrum.ms
>quality UNKNOWN

>ms2peaks
50.015715 189.0
51.023925 342.0
52.028055 120.0
53.039834 128.0
55.054814 191.0
56.062443 23.0
57.069603 16.0
58.063333 14.0
60.985762 40.0
62.015962 41.0
63.022121 187.0
64.029321 28.0
65.038181 778.0
66.041401 53.0
67.0531 168.0
68.06036 21.0
68.99374 142.0
69.06699 17.0
70.059699 22.0
72.936329 13.0
74.015348 49.0
75.018268 26.0
76.032198 51.0
77.040048 796.0
78.043277 107.0
79.054737 248.0
80.056057 108.0
81.048686 25.0
81.072496 136.0
82.061626 19.0
83.086216 15.0
84.959325 19.0
84.998155 26.0
87.018625 27.0
88.018464 19.0
89.041574 238.0
90.046424 48.0
91.055044 1240.0
92.058003 126.0
93.069283 73.0
94.067093 52.0
95.047302 41.0
95.066402 64.0
95.954842 25.0
97.004622 23.0
97.065412 12.0
97.949552 14.0
99.080351 16.0
101.060831 17.0
102.04703 43.0
103.05494 79.0
104.0518 47.0
105.07054 216.0
106.074059 58.0
107.066119 22.0
109.066158 55.0
110.096758 13.0
111.002118 29.0
111.117748 14.0
113.001967 76.0
114.030027 12.0
115.054347 470.0
116.054736 37.0
116.060016 51.0
117.063706 122.0
118.065336 49.0
119.066946 25.0
119.085116 40.0
120.082455 22.0
121.101195 31.0
122.970104 18.0
125.002244 24.0
126.049294 34.0
127.058753 92.0
128.061143 123.0
129.066383 69.0
130.066612 74.0
130.993302 30.0
132.018952 19.0
133.063302 36.0
133.100592 48.0
134.068641 22.0
135.077781 18.0
137.01908 13.0
137.02596 13.0
138.12787 25.0
139.05162 23.0
139.06201 18.0
141.070039 84.0
142.072439 26.0
143.071369 32.0
144.081998 40.0
145.087948 26.0
145.102108 23.0
145.969548 43.0
147.105588 23.0
147.968257 33.0
150.046567 26.0
151.044186 16.0
151.051416 35.0
152.059616 118.0
153.052996 16.0
153.068736 102.0
154.065416 84.0
154.078776 27.0
155.056755 28.0
155.066525 73.0
156.083125 46.0
157.056375 16.0
157.087075 35.0
157.103035 25.0
158.086864 33.0
159.094764 15.0
160.128184 20.0
161.094064 29.0
161.128874 20.0
163.028283 25.0
163.063303 23.0
163.108343 14.0
164.055553 22.0
164.064323 31.0
165.070952 147.0
166.059172 17.0
166.076842 45.0
167.075682 39.0
167.084532 51.0
168.080022 59.0
169.087391 25.0
170.068401 28.0
170.097791 16.0
171.086811 15.0
172.095441 17.0
173.04388 45.0
173.05289 77.0
173.09672 25.0
175.11056 24.0
176.060749 24.0
177.068259 88.0
178.077339 43.0
179.080119 33.0
180.984688 26.0
181.098038 21.0
182.103978 38.0
183.062317 23.0
183.110047 23.0
184.093627 15.0
185.069207 13.0
185.097177 30.0
187.129866 20.0
189.067246 55.0
189.084766 18.0
190.069395 23.0
190.077505 17.0
191.003775 54.0
191.076895 26.0
192.084335 21.0
192.978735 28.0
193.977544 17.0
195.078764 23.0
195.091084 33.0
196.114534 19.0
197.066393 24.0
197.113163 48.0
199.095873 23.0
201.066282 16.0
202.078792 21.0
204.072291 25.0
205.061471 23.0
205.104981 21.0
206.075561 16.0
207.031521 86.0
208.03491 36.0
209.02514 18.0
213.091109 18.0
215.084898 14.0
215.122268 35.0
217.076428 26.0
219.103217 19.0
223.091436 17.0
225.041705 11.0
226.118725 15.0
227.096425 13.0
227.112645 26.0
229.105594 17.0
231.078954 13.0
231.142994 6.0
233.117603 17.0
241.075701 34.0
241.110691 12.0
242.98529 12.0
248.986479 19.0
250.989168 14.0
251.043488 16.0
251.153698 23.0
256.202647 12.0
257.116046 28.0
259.103806 12.0
265.018874 39.0
266.998484 24.0
267.999853 18.0
269.123633 85.0
273.143322 16.0
281.04707 27.0
281.05366 87.0
282.051399 41.0
283.036109 16.0
286.141298 12.0
287.126468 1881.0

