>compound 
>formula C11H20O4
>parentmass 239.12538012288
>ionization [M + Na]+
>instrumentation Unknown (LCMS)
>source file:/Users/fanzhoukong/Documents/GitHub/Libgen/data/EAD_PFP/0_unknown_/spectrum.ms
>quality UNKNOWN

>ms2peaks
50.013865 132.0
51.022766 210.0
52.030437 56.0
53.037968 98.0
54.033549 6.0
54.042909 8.0
55.05511 81.0
55.93448 7.0
56.049561 5.0
57.069931 53.0
57.935352 6.0
59.048683 44.0
60.984615 37.0
62.014816 31.0
63.022537 86.0
64.028968 12.0
65.038628 914.0
66.033899 13.0
66.043449 67.0
67.05357 132.0
68.995052 146.0
69.070752 5.0
71.048444 20.0
73.046525 19.0
74.015066 43.0
75.008657 8.0
75.021387 40.0
76.028518 27.0
77.038069 625.0
78.04303 124.0
79.052751 211.0
80.050561 58.0
81.070502 103.0
82.072053 7.0
83.086894 26.0
85.026856 27.0
86.017037 25.0
87.021177 5.0
89.039549 101.0
90.04533 37.0
91.055811 1136.0
92.048442 7.0
92.056902 161.0
93.059693 7.0
93.064413 64.0
94.054604 7.0
94.065054 19.0
95.048114 17.0
95.066264 20.0
95.077724 8.0
95.085374 36.0
95.953755 8.0
97.026686 6.0
99.992099 12.0
102.047931 47.0
103.053861 59.0
104.051722 14.0
104.062722 7.0
105.032313 12.0
105.050383 64.0
105.069463 43.0
106.064914 15.0
107.011335 33.0
108.080066 7.0
109.100897 11.0
110.998988 30.0
111.045438 15.0
113.00091 35.0
115.053282 311.0
116.055793 44.0
117.067954 81.0
117.959984 6.0
118.054694 14.0
118.065344 32.0
118.069604 11.0
119.084065 44.0
120.078186 13.0
121.082897 16.0
121.102307 20.0
123.044029 6.0
123.080979 31.0
123.095109 10.0
125.0001 6.0
125.05925 5.0
126.048261 26.0
127.040052 23.0
127.049992 86.0
128.062333 257.0
129.056444 5.0
129.065334 36.0
130.066685 54.0
130.992276 30.0
131.068526 13.0
131.079746 17.0
131.087586 11.0
132.017927 18.0
132.080967 13.0
133.074697 9.0
133.088257 8.0
133.101827 15.0
134.097108 8.0
136.08394 17.0
137.022631 5.0
137.093751 18.0
138.066992 11.0
139.041363 322.0
140.050454 16.0
141.070184 25.0
141.929015 16.0
143.057456 7.0
143.070336 8.0
143.084406 15.0
144.082177 13.0
145.060988 6.0
145.081048 13.0
145.970919 12.0
147.0844 18.0
147.96725 16.0
149.059621 23.0
150.046772 12.0
151.045593 10.0
151.052833 36.0
151.074493 13.0
151.106993 7.0
152.061034 73.0
153.065325 74.0
154.066836 42.0
155.069187 29.0
155.086277 28.0
156.066227 18.0
156.079687 22.0
157.062768 6.0
157.094688 11.0
158.095729 33.0
159.07772 7.0
159.11726 15.0
160.113571 7.0
161.057022 6.0
161.089352 17.0
161.099282 15.0
161.129142 7.0
162.127953 7.0
163.056073 20.0
163.067333 17.0
163.078593 16.0
164.063354 19.0
165.061155 6.0
165.076265 93.0
165.082545 53.0
165.090105 49.0
167.074697 26.0
168.066358 10.0
168.084138 37.0
169.068589 13.0
169.077519 29.0
170.08149 15.0
172.079041 6.0
172.108621 8.0
173.107352 8.0
174.039173 6.0
175.075894 111.0
176.053295 7.0
176.062405 12.0
177.058176 30.0
178.071167 10.0
178.080307 35.0
179.069977 43.0
179.083077 13.0
179.096187 27.0
181.049639 190.0
181.073359 16.0
182.09642 14.0
183.091861 6.0
184.109952 8.0
185.085573 6.0
186.122564 11.0
187.056584 8.0
189.070366 26.0
190.068457 12.0
191.001488 27.0
191.071888 12.0
191.996509 5.0
192.984609 32.0
193.08669 63.0
193.98206 6.0
194.10078 12.0
195.114791 17.0
196.072462 7.0
196.109492 6.0
197.077843 5.0
197.112223 7.0
198.116134 45.0
198.965045 7.0
199.123975 6.0
201.068146 6.0
203.070618 109.0
204.081169 20.0
205.0802 10.0
205.16298 13.0
206.098541 8.0
207.030612 83.0
207.094042 11.0
208.032603 13.0
209.024233 11.0
210.009724 5.0
210.989005 12.0
211.024595 6.0
211.119925 8.0
212.081816 6.0
213.074487 5.0
215.085449 9.0
216.08078 7.0
217.08565 5.0
218.094271 10.0
219.096542 9.0
220.111283 10.0
221.083204 16.0
221.096334 7.0
221.151674 9.0
223.122746 6.0
224.073426 6.0
225.040827 9.0
227.085209 9.0
228.09164 10.0
229.162561 6.0
231.103403 6.0
233.098794 6.0
234.128935 7.0
237.140948 5.0
239.1243 498.0

