>compound 
>formula C14H11Cl2NO2
>parentmass 296.023956298828
>ionization [M + H]+
>instrumentation Unknown (LCMS)
>source file:/Users/fanzhoukong/Documents/GitHub/Libgen/data/NIST_MONA/0_unknown_/spectrum.ms
>quality UNKNOWN

>ms2peaks
43.0536 26.5
55.01734 8.0
67.05392 16.8
68.03199 2.0
69.03328 3.5
69.06974 13.7
70.06547 3.4
71.08554 63.2
79.054 12.6
81.06987 15.3
83.08551 22.9
84.04451 1.9
86.10305 1.2
91.05414 27.1
92.05608 3.7
93.03329 15.6
93.06944 13.9
95.08552 17.0
97.06478 4.2
99.07949 2.1
100.07558 2.5
107.08537 10.3
108.08183 3.1
111.08038 2.8
114.09177 1.8
119.08543 9.6
122.03183 3.4
124.07766 3.0
128.06251 4.6
137.0607 1.6
138.0899 3.0
150.09422 1.2
155.08626 4.2
158.06943 3.9
172.07994 1.2
175.07695 2.3
199.08421 5.7
201.04912 1.6
202.08716 2.7
214.04239 100.0
215.04919 37.9
216.04045 28.7
217.04637 11.8

