>compound 
>formula C28H36O7
>parentmass 485.2533844972701
>ionization [M + H]+
>instrumentation Unknown (LCMS)
>source file:/Users/fanzhoukong/Documents/GitHub/Libgen/data/EAD_PFP/0_unknown_/spectrum.ms
>quality UNKNOWN

>ms2peaks
50.014056 171.0
51.024333 605.0
52.032 111.0
53.037397 117.0
55.050141 129.0
55.055231 339.0
56.054078 17.0
57.070776 95.0
60.984674 57.0
62.015631 46.0
63.020228 122.0
64.025066 21.0
64.032116 22.0
65.039423 1051.0
66.04504 69.0
67.055157 465.0
68.996641 180.0
70.066718 20.0
71.050035 25.0
74.014137 61.0
75.017044 26.0
75.023834 58.0
76.032681 72.0
77.040528 2279.0
78.042025 96.0
78.045485 225.0
79.056092 956.0
80.05128 55.0
80.05829 56.0
81.070337 228.0
83.049211 62.0
85.062775 23.0
86.011372 17.0
88.027227 30.0
89.039294 286.0
91.049938 217.0
91.054608 1849.0
92.059445 145.0
93.069792 419.0
94.059999 51.0
95.011517 699.0
95.954394 35.0
97.070751 43.0
97.100671 24.0
98.017938 20.0
99.071115 31.0
102.039636 35.0
103.052473 311.0
104.063321 55.0
105.070058 1236.0
106.061465 43.0
107.069692 102.0
107.086922 143.0
109.097376 52.0
110.999551 26.0
111.043941 34.0
113.001455 57.0
114.036842 30.0
115.056979 900.0
116.061606 122.0
117.070603 435.0
118.06693 76.0
119.085657 479.0
120.080845 34.0
121.068322 68.0
121.072632 110.0
121.092042 62.0
122.070659 25.0
122.084739 21.0
123.055396 32.0
123.082566 28.0
123.099956 49.0
123.116266 49.0
125.05318 14.0
126.046547 45.0
127.054895 351.0
128.062802 883.0
129.070259 495.0
130.064916 68.0
130.071616 108.0
131.048803 30.0
131.065623 69.0
131.086933 138.0
132.04877 42.0
133.071757 176.0
133.083057 225.0
135.078332 58.0
135.117041 23.0
137.063226 46.0
137.097626 38.0
139.05218 113.0
139.1111 33.0
140.060147 35.0
141.069434 295.0
142.078851 258.0
143.076599 80.0
143.087159 216.0
144.086106 87.0
145.074363 225.0
145.082623 176.0
145.100323 203.0
146.06362 37.0
146.09205 35.0
147.049137 64.0
147.093097 82.0
147.120417 65.0
148.083254 18.0
149.085101 58.0
149.097061 47.0
149.132951 22.0
150.048319 38.0
151.056806 79.0
151.113395 45.0
152.062603 386.0
153.06932 480.0
154.062337 42.0
154.075697 148.0
155.082964 231.0
156.094711 151.0
157.065558 29.0
157.101168 216.0
158.099765 57.0
159.080503 34.0
159.096593 130.0
159.112642 171.0
160.09157 18.0
161.059827 1577.0
162.068414 214.0
163.062631 86.0
163.077661 106.0
163.092661 94.0
164.059898 55.0
164.076208 46.0
165.071535 484.0
166.074902 91.0
167.08512 149.0
168.075537 59.0
168.097127 83.0
169.065054 19.0
169.082894 84.0
169.101994 188.0
170.079191 23.0
170.090701 39.0
170.104751 73.0
171.084848 51.0
171.118158 160.0
172.085745 25.0
173.094722 48.0
173.107612 99.0
173.133382 155.0
174.06658 20.0
175.077437 933.0
176.054834 46.0
176.092524 21.0
177.051911 37.0
177.072761 47.0
177.097531 103.0
177.132731 61.0
178.073998 151.0
179.084635 194.0
179.139685 19.0
180.088902 65.0
180.099432 50.0
181.072269 26.0
181.077549 46.0
181.097309 150.0
182.083417 27.0
182.103256 42.0
182.109856 32.0
183.086774 75.0
183.103994 99.0
183.109304 146.0
184.091561 34.0
185.092438 29.0
185.103108 69.0
185.113768 64.0
186.093355 42.0
187.094292 59.0
187.107692 114.0
187.125122 69.0
188.085829 37.0
189.073236 97.0
189.098826 129.0
189.117686 137.0
189.162146 111.0
190.072684 41.0
191.042281 43.0
191.082901 76.0
191.107291 64.0
192.093078 65.0
192.982055 29.0
193.086845 34.0
193.100455 121.0
194.087292 43.0
195.086199 57.0
195.099889 59.0
196.091796 35.0
197.099993 80.0
197.117873 100.0
197.131623 57.0
198.11903 28.0
199.084028 39.0
199.119978 179.0
199.142088 132.0
200.081835 20.0
200.144205 18.0
201.090502 32.0
201.150242 110.0
201.164122 218.0
202.079389 50.0
203.081906 65.0
203.104226 113.0
203.133556 59.0
203.147516 33.0
204.081273 20.0
205.052251 54.0
205.067691 131.0
205.09154 202.0
205.12099 69.0
206.059288 54.0
207.049025 81.0
207.068775 37.0
207.102605 88.0
207.177334 61.0
208.090622 19.0
209.096569 50.0
209.113569 85.0
210.103526 23.0
211.101503 38.0
211.112903 56.0
211.149903 23.0
212.09046 23.0
213.094577 65.0
213.140337 83.0
214.098205 60.0
215.094122 72.0
215.107052 121.0
215.153042 83.0
217.090016 38.0
217.107336 60.0
217.149206 61.0
219.06903 125.0
219.11543 57.0
220.086607 15.0
221.116754 42.0
221.132754 32.0
222.141991 29.0
223.112519 61.0
223.130079 92.0
223.149109 33.0
225.093763 39.0
225.127563 36.0
225.134903 71.0
225.164303 28.0
226.10017 18.0
227.105887 73.0
227.163457 80.0
228.116774 17.0
229.119551 82.0
230.112619 22.0
231.113806 43.0
231.145086 40.0
232.096273 19.0
233.08081 26.0
233.10324 25.0
233.13167 39.0
233.17954 33.0
235.114744 45.0
237.122798 84.0
237.152978 78.0
237.162028 119.0
238.155736 29.0
239.078793 33.0
239.104553 15.0
239.145463 62.0
240.11751 31.0
241.124977 59.0
243.118781 42.0
243.132531 64.0
243.141701 144.0
243.163071 70.0
243.175301 28.0
244.095798 35.0
244.170788 21.0
245.114636 28.0
245.152985 80.0
245.189805 43.0
246.107953 25.0
247.11097 41.0
247.1387 33.0
249.129324 49.0
249.164874 17.0
251.107738 61.0
251.140328 67.0
251.154308 46.0
253.123603 130.0
253.139182 45.0
253.154772 22.0
255.170987 247.0
256.143694 34.0
257.149641 68.0
257.168501 52.0
257.192061 115.0
259.124915 28.0
259.165925 34.0
261.11722 61.0
262.101197 26.0
263.110834 24.0
263.126704 48.0
265.097648 42.0
265.156668 91.0
267.138352 21.0
267.147962 70.0
267.178382 36.0
267.202402 37.0
267.213632 57.0
268.156049 35.0
269.129037 43.0
269.146737 56.0
269.169226 50.0
271.104551 20.0
271.140041 74.0
273.118035 102.0
273.171445 23.0
275.127579 43.0
276.113147 20.0
277.159163 61.0
278.127121 23.0
279.136058 53.0
281.049322 44.0
281.098602 16.0
281.154452 106.0
282.157319 25.0
283.171876 152.0
285.18657 78.0
285.21139 70.0
286.126998 18.0
287.128735 41.0
287.186845 25.0
289.172429 43.0
291.136483 25.0
291.174903 43.0
291.228393 23.0
293.110498 24.0
293.130618 38.0
293.150758 95.0
295.165242 143.0
297.159596 42.0
297.183246 37.0
299.13865 63.0
299.17933 47.0
301.161685 113.0
301.180395 122.0
303.171079 30.0
303.217129 28.0
305.164883 49.0
307.134327 41.0
307.172077 43.0
309.172102 40.0
309.211711 68.0
311.171696 62.0
311.185526 73.0
313.15866 39.0
313.18118 169.0
313.20374 54.0
313.21933 52.0
313.27481 40.0
314.185757 31.0
315.209344 32.0
317.186449 35.0
319.166243 71.0
321.152197 47.0
321.164497 53.0
323.177771 36.0
323.204201 58.0
325.130216 19.0
325.144346 51.0
325.165556 51.0
327.21789 23.0
327.23562 67.0
329.187824 40.0
329.210924 76.0
331.188608 38.0
333.181153 37.0
333.220523 22.0
335.167147 24.0
335.190457 34.0
337.175221 27.0
337.214781 239.0
339.167625 19.0
339.219955 44.0
341.17497 41.0
343.188214 22.0
343.215434 56.0
345.198278 37.0
345.227418 43.0
347.183192 60.0
347.195982 167.0
349.186637 22.0
349.212267 37.0
350.221664 40.0
351.208661 58.0
351.230701 100.0
353.179455 23.0
353.207075 31.0
353.242045 19.0
355.231479 282.0
359.206628 55.0
361.216442 209.0
363.228156 615.0
365.209901 359.0
367.195125 39.0
369.133049 43.0
369.259179 11.0
371.206283 114.0
371.223283 37.0
372.222401 14.0
373.234238 519.0
377.215366 25.0
379.2272 990.0
380.235127 38.0
381.244405 1762.0
383.192149 20.0
383.220899 37.0
385.162153 21.0
389.210112 500.0
391.195516 19.0
395.187325 21.0
397.240609 135.0
403.241561 24.0
407.22501 1454.0
409.210204 36.0
410.207581 36.0
417.223271 35.0
417.263281 20.0
424.215681 40.0
425.235218 4889.0
431.282531 31.0
435.23625 19.0
439.253178 40.0
440.274175 25.0
441.261382 20.0
443.245267 34.0
449.277629 45.0
461.155395 20.0
467.246598 55.0
467.284718 126.0
467.303787 61.0
467.327077 47.0
468.178785 32.0
469.234962 23.0
484.239069 56.0
485.254936 3341.0

