>compound 
>formula C26H40O10
>parentmass 535.2513684849
>ionization [M + Na]+
>instrumentation Unknown (LCMS)
>source file:/Users/fanzhoukong/Documents/GitHub/Libgen/data/EAD_PFP/0_unknown_/spectrum.ms
>quality UNKNOWN

>ms2peaks
115.054168 102.0
116.063006 48.0
117.065644 50.0
126.032598 20.0
127.055246 53.0
128.055414 44.0
129.068392 59.0
130.06528 31.0
147.073279 73.0
147.966848 27.0
150.057124 79.0
151.053572 29.0
152.063 200.0
153.055169 68.0
154.067607 105.0
155.084565 119.0
156.043723 59.0
157.047551 80.0
157.090511 42.0
158.095229 55.0
159.095748 113.0
161.093804 24.0
162.073812 52.0
163.0568 36.0
164.051519 30.0
165.061857 53.0
165.070677 156.0
166.075315 50.0
167.072863 57.0
167.079193 86.0
169.075659 109.0
169.085859 80.0
171.028886 75.0
171.117296 30.0
172.114444 37.0
173.110612 17.0
175.081759 40.0
176.063057 24.0
177.057555 39.0
178.074443 37.0
179.079811 26.0
181.083238 20.0
181.099058 31.0
182.099716 21.0
184.034852 107.0
185.0409 103.0
186.071089 27.0
187.120197 24.0
188.041935 37.0
189.072333 52.0
190.066381 43.0
191.00075 48.0
191.079279 36.0
192.066378 22.0
192.086748 32.0
192.981156 110.0
194.094564 25.0
195.098972 30.0
201.038171 146.0
202.052009 154.0
203.054448 220.0
204.077556 23.0
206.097722 25.0
207.034 60.0
208.030339 28.0
210.990973 12.0
214.084358 30.0
215.068746 52.0
215.119016 43.0
217.084732 42.0
219.095618 25.0
220.117627 22.0
223.072051 38.0
226.044686 32.0
227.141814 11.0
231.100907 42.0
235.143799 21.0
237.124826 33.0
240.11196 19.0
241.087479 33.0
245.115171 12.0
247.060688 59.0
248.990704 22.0
249.991832 36.0
251.00427 31.0
253.125697 21.0
255.138673 33.0
257.101499 29.0
257.125059 36.0
265.020035 75.0
267.004441 43.0
270.165566 18.0
273.03766 17.0
273.1445 19.0
281.053176 80.0
282.050954 28.0
285.185498 12.0
287.107735 20.0
289.071411 21.0
291.123688 43.0
297.185537 68.0
301.179299 42.0
305.102182 12.0
307.167548 43.0
310.113923 29.0
311.175781 45.0
313.147148 28.0
315.065604 40.0
316.170732 36.0
319.231636 12.0
323.155519 68.0
325.180296 338.0
326.184474 122.0
329.174248 50.0
331.308705 12.0
337.168684 66.0
337.183054 149.0
338.189342 32.0
339.19175 1227.0
341.164767 2271.0
343.188873 61.0
347.167436 44.0
353.150675 60.0
353.159865 427.0
354.167613 44.0
355.187841 2301.0
356.196599 130.0
357.169737 84.0
361.07379 38.0
365.068313 28.0
369.156326 35.0
371.182442 428.0
372.18342 21.0
372.19477 46.0
373.198978 201.0
377.185631 116.0
377.191341 213.0
379.208827 12.0
381.187734 28.0
382.121662 66.0
383.18327 165.0
385.197497 57.0
386.203685 36.0
391.081916 48.0
392.169494 28.0
393.180872 753.0
395.131558 86.0
397.200335 144.0
401.191177 649.0
405.18818 34.0
405.22959 61.0
406.200418 80.0
407.045867 22.0
407.205967 134.0
408.206855 481.0
409.216893 37.0
414.198054 23.0
415.199482 395.0
415.215472 864.0
419.199325 33.0
421.223491 1294.0
422.231389 78.0
423.204197 40.0
427.09854 34.0
428.030329 12.0
433.216109 318.0
435.220686 25.0
439.206758 28.0
443.206881 97.0
445.215817 40.0
446.218866 28.0
447.237574 155.0
448.238762 24.0
451.103377 32.0
453.215623 12.0
457.220246 66.0
459.187162 60.0
459.229152 51.0
461.223538 76.0
461.244568 51.0
463.218015 37.0
468.217756 12.0
469.114854 30.0
469.210314 35.0
473.252876 114.0
474.259285 26.0
475.232603 322.0
476.230441 40.0
477.254969 1330.0
481.112782 39.0
485.208325 28.0
487.223671 50.0
487.230171 147.0
489.215067 84.0
490.253486 42.0
491.243044 438.0
491.262604 203.0
499.125569 37.0
500.233627 35.0
501.204696 37.0
503.226602 296.0
504.24018 148.0
505.239388 212.0
507.267185 29.0
515.22558 67.0
516.240038 79.0
517.242177 3573.0
518.260785 93.0
519.226913 111.0
533.244827 608.0
533.489157 90.0
534.240616 718.0
535.260024 20928.0

