>compound 
>formula C64H104O30
>parentmass 1370.69506293902
>ionization [M + H3N + H]+
>instrumentation Unknown (LCMS)
>source file:/Users/fanzhoukong/Documents/GitHub/Libgen/data/EAD_PFP/0_unknown_/spectrum.ms
>quality UNKNOWN

>ms2peaks
127.056015 49.0
128.060624 115.0
129.066952 45.0
130.066051 69.0
130.99276 52.0
131.08359 11.0
133.100028 30.0
139.056841 24.0
140.05324 48.0
141.065999 71.0
142.075378 39.0
143.070797 50.0
144.068506 50.0
146.089734 24.0
150.047189 23.0
165.070353 179.0
166.064882 54.0
167.07888 111.0
169.075338 67.0
170.090787 24.0
171.102876 45.0
173.130904 28.0
174.995892 18.0
175.146232 53.0
176.062741 36.0
178.078028 175.0
179.078177 38.0
180.077186 60.0
181.086875 43.0
182.088804 36.0
183.037843 30.0
184.114272 24.0
185.132541 42.0
187.149348 21.0
188.143717 19.0
189.069316 84.0
190.076865 42.0
190.999074 94.0
191.072194 47.0
192.082343 44.0
192.093203 48.0
192.983542 57.0
193.093782 45.0
195.10138 21.0
197.079497 28.0
198.108136 26.0
199.060665 37.0
200.108324 11.0
201.164273 74.0
203.079251 24.0
203.142081 31.0
204.08143 56.0
206.086137 33.0
207.036486 144.0
208.025775 30.0
208.087945 35.0
210.116453 46.0
212.077771 11.0
215.085678 30.0
216.088186 18.0
217.098845 11.0
220.115832 19.0
221.103791 21.0
225.074827 81.0
226.092985 18.0
227.175464 20.0
229.094522 56.0
230.084571 14.0
233.109428 11.0
234.127597 11.0
236.123924 11.0
237.118473 11.0
239.089611 39.0
241.093249 13.0
242.983057 62.0
243.085387 44.0
245.194624 37.0
246.131223 12.0
249.16201 18.0
251.152968 32.0
253.198636 26.0
255.085153 66.0
258.07125 12.0
261.092127 17.0
261.985646 12.0
265.018143 32.0
267.01054 37.0
268.979868 25.0
273.097234 56.0
279.108497 77.0
281.051235 110.0
293.125872 31.0
301.054913 12.0
307.103736 12.0
369.116508 11.0
376.27077 12.0
391.333523 29.0
393.252471 12.0
404.251789 12.0
405.134658 24.0
409.349403 39.0
435.322615 17.0
435.332805 20.0
437.344343 47.0
441.161078 40.0
449.247009 12.0
453.334225 48.0
454.348474 70.0
455.182003 18.0
455.357593 95.0
473.363433 31.0
583.396611 30.0
587.221797 47.0
601.409652 50.0
633.391246 11.0
695.818298 12.0
715.462256 12.0
731.429348 12.0
747.486941 12.0
749.271789 79.0
761.446585 12.0
763.464463 26.0
879.471295 11.0
881.302473 42.0
913.520447 40.0
1041.561206 18.0
1059.558006 30.0
1059.586696 13.0
1088.551265 13.0
1191.639531 39.0
1238.570259 13.0
1266.660198 22.0
1341.669885 13.0
1353.659732 21.0
1366.231498 13.0
1368.691216 21.0
1369.691705 62.0
1370.688893 1361.0

