>compound 
>formula C16H14O6
>parentmass 325.06825916864005
>ionization [M + Na]+
>instrumentation Unknown (LCMS)
>source file:/Users/fanzhoukong/Documents/GitHub/Libgen/data/EAD_PFP/0_unknown_/spectrum.ms
>quality UNKNOWN

>ms2peaks
50.016622 133.0
51.022741 409.0
52.02686 54.0
53.039348 91.0
54.034937 13.0
54.044297 4.0
55.054326 316.0
55.934405 6.0
56.050955 31.0
56.056825 13.0
56.943373 5.0
57.069853 14.0
57.933022 6.0
59.048581 15.0
60.982969 33.0
61.006688 7.0
62.013917 58.0
63.022396 239.0
64.025685 9.0
65.040843 880.0
66.044882 82.0
67.054201 233.0
68.02592 9.0
68.04289 5.0
68.05743 7.0
68.996499 197.0
69.068119 14.0
70.067387 18.0
71.049066 12.0
72.084145 4.0
72.936664 8.0
73.046304 10.0
74.015682 40.0
75.016061 28.0
76.02827 69.0
77.040399 831.0
78.045357 114.0
79.055096 376.0
80.052915 95.0
80.059045 42.0
81.069334 210.0
82.066432 36.0
83.085701 35.0
85.031049 5.0
85.053639 14.0
86.015808 11.0
87.024496 12.0
88.030805 21.0
89.039204 241.0
90.043113 27.0
91.055451 1435.0
92.05559 120.0
93.061199 17.0
93.070649 103.0
94.056118 6.0
94.066568 53.0
95.053456 5.0
95.084976 68.0
95.952395 16.0
96.080055 6.0
97.065844 28.0
98.098383 6.0
99.99265 7.0
100.1122 6.0
102.044518 57.0
103.055396 266.0
104.048265 16.0
104.060255 11.0
105.071004 304.0
106.066453 48.0
107.084841 34.0
108.05616 8.0
109.066639 8.0
109.100399 7.0
110.036608 6.0
110.999507 15.0
113.000384 71.0
113.034744 6.0
114.047263 3.0
115.055892 469.0
116.05841 65.0
117.066339 66.0
118.069038 46.0
119.084567 39.0
120.084045 37.0
121.079084 13.0
121.099564 10.0
122.105283 9.0
123.042352 8.0
123.080382 14.0
125.000589 11.0
126.046538 30.0
127.057097 162.0
128.063916 375.0
129.069164 140.0
130.064923 111.0
130.992752 15.0
131.044322 25.0
131.066752 30.0
131.074602 54.0
131.084702 38.0
132.016141 7.0
132.065671 5.0
132.079171 36.0
133.069509 11.0
133.085339 8.0
133.098889 23.0
134.095298 14.0
135.082907 27.0
135.118197 8.0
136.083276 6.0
136.108406 5.0
137.057504 16.0
137.083884 5.0
139.039512 6.0
139.056822 41.0
140.057861 13.0
141.070629 194.0
141.924768 7.0
142.074198 72.0
143.083677 75.0
144.083786 87.0
145.063795 6.0
145.083844 24.0
145.102734 55.0
145.968973 27.0
147.082452 11.0
147.116902 16.0
147.965311 19.0
147.972461 5.0
148.110721 13.0
150.043578 11.0
151.053237 19.0
152.062666 136.0
153.059675 20.0
153.070585 55.0
154.070903 35.0
155.061082 9.0
155.080592 36.0
156.077651 10.0
157.09632 28.0
158.093678 24.0
159.115177 62.0
161.095965 13.0
163.043962 37.0
163.051452 20.0
163.075232 6.0
164.048691 6.0
164.062491 15.0
165.07163 174.0
166.068679 45.0
167.072557 52.0
167.080157 41.0
168.080716 32.0
168.093406 20.0
169.066435 10.0
169.075345 11.0
169.085535 36.0
169.093185 47.0
169.107185 15.0
170.089514 9.0
170.102304 19.0
171.028592 6.0
171.090082 9.0
171.104182 12.0
171.114422 23.0
172.107701 11.0
173.09354 13.0
173.11803 11.0
173.13221 17.0
174.135199 9.0
175.112547 7.0
176.061446 26.0
177.009015 5.0
177.070265 11.0
177.126325 7.0
178.079364 79.0
178.962863 6.0
179.079492 19.0
179.087372 39.0
180.086411 19.0
181.04603 6.0
181.05922 7.0
181.08294 35.0
182.106009 17.0
182.187979 18.0
183.117397 17.0
184.034556 6.0
184.114296 13.0
185.133905 101.0
186.066774 8.0
187.067643 17.0
187.145362 44.0
188.072531 5.0
189.0707 47.0
190.076889 26.0
191.001818 42.0
191.078998 12.0
192.006346 5.0
192.078286 17.0
192.093246 9.0
192.980865 50.0
193.092465 26.0
194.001494 5.0
194.095634 11.0
194.101104 14.0
195.067223 18.0
195.102793 12.0
196.111181 10.0
197.12217 9.0
197.1318 22.0
198.086129 6.0
198.126109 9.0
199.131198 5.0
199.146408 6.0
201.165715 32.0
202.076794 50.0
203.129543 18.0
203.140713 35.0
204.081462 18.0
204.102461 6.0
204.147241 8.0
205.00476 4.0
205.01457 7.0
205.08892 11.0
205.15767 8.0
206.083389 5.0
206.097439 5.0
206.157919 5.0
207.030908 97.0
207.084478 5.0
208.032887 15.0
208.119087 9.0
209.126535 13.0
210.992133 7.0
211.124483 9.0
211.152963 68.0
212.149162 9.0
215.087138 18.0
215.097218 10.0
216.086817 10.0
217.091675 6.0
217.158075 7.0
218.074294 5.0
219.083753 6.0
219.101163 7.0
219.138853 18.0
220.111532 7.0
221.11697 15.0
223.024968 6.0
223.111298 8.0
223.130318 5.0
225.045486 7.0
225.166015 20.0
226.075384 7.0
227.078083 6.0
228.075602 5.0
229.142041 6.0
229.158351 37.0
230.096539 11.0
231.103628 6.0
233.007806 82.0
234.117174 5.0
235.125523 8.0
235.148043 38.0
236.952641 5.0
237.114021 22.0
239.082108 5.0
239.177548 10.0
240.945796 5.0
241.093316 6.0
242.984663 7.0
243.169473 14.0
246.221989 6.0
247.126668 14.0
247.140528 5.0
248.990486 16.0
249.149726 7.0
250.973004 9.0
251.125123 22.0
253.120791 7.0
253.159761 29.0
256.133017 6.0
258.128015 6.0
258.217735 6.0
259.245103 5.0
261.144461 9.0
262.15227 7.0
263.165178 21.0
265.018236 19.0
265.101176 10.0
267.002634 23.0
267.117904 5.0
267.999212 7.0
269.203321 5.0
271.140389 5.0
271.167819 59.0
275.101934 6.0
279.120049 7.0
279.159329 8.0
281.051356 81.0
282.054035 31.0
283.043694 7.0
284.049913 5.0
287.150709 6.0
289.151166 13.0
289.177836 26.0
290.104785 13.0
293.115941 13.0
293.139411 10.0
295.108439 3.0
299.061164 5.0
302.28348 3.0
307.121024 44.0
307.150204 22.0
307.175954 7.0
309.005482 8.0
322.963444 6.0
325.127172 28.0
325.137762 85.0
325.153652 152.0
325.162512 266.0
325.192532 19.0

