>compound 
>formula C21H30O10
>parentmass 460.2177181626001
>ionization [M + H3N + H]+
>instrumentation Unknown (LCMS)
>source file:/Users/fanzhoukong/Documents/GitHub/Libgen/data/EAD_PFP/0_unknown_/spectrum.ms
>quality UNKNOWN

>ms2peaks
50.016954 209.0
51.02306 626.0
52.030706 48.0
53.039652 663.0
54.048918 34.0
55.018995 669.0
55.032805 550.0
56.027031 37.0
57.036827 2433.0
57.824484 17.0
58.042203 565.0
59.048829 134.0
60.023126 257.0
61.030652 295.0
62.018778 35.0
63.034284 98.0
63.044394 118.0
64.021981 22.0
64.030601 44.0
65.041047 651.0
66.047463 83.0
67.045569 30.0
67.053589 126.0
68.027715 21.0
69.034922 854.0
70.822335 37.0
71.056654 4915.0
71.859071 26.0
72.05269 41.0
72.14086 20.0
72.487398 18.0
73.030536 451.0
74.018353 41.0
75.045889 1445.0
76.025835 48.0
76.034375 29.0
77.041371 1596.0
78.045467 222.0
79.056933 979.0
80.05038 30.0
81.035906 559.0
82.042552 82.0
83.050948 1813.0
84.020605 70.0
84.752212 26.0
85.032911 4327.0
85.035621 6530.0
85.832428 42.0
87.046473 660.0
88.010619 22.0
89.029056 453.0
91.057338 2059.0
92.058424 90.0
93.06781 38.0
94.044706 52.0
95.051533 179.0
97.032045 1155.0
98.065361 34.0
99.044677 339.0
100.034734 33.0
101.02479 16.0
101.04547 45.0
101.06024 109.0
102.045446 27.0
103.045382 897.0
104.054188 34.0
105.066905 132.0
105.072925 1520.0
106.052241 28.0
107.051297 1595.0
108.049943 55.0
109.03175 194.0
110.062186 305.0
111.045842 1210.0
112.053578 20.0
113.015864 27.0
113.028364 58.0
115.055747 1051.0
116.059313 141.0
117.064059 54.0
117.069359 401.0
118.058225 36.0
119.052331 147.0
120.059178 70.0
121.035784 25.0
121.059494 24.0
123.045406 65.0
125.032149 23.0
125.060629 16.0
126.054025 46.0
127.040311 1605.0
128.065907 348.0
128.619695 26.0
128.635265 28.0
129.062243 6897.0
130.03118 57.0
130.06133 51.0
131.051926 232.0
131.088946 30.0
132.051922 78.0
132.066542 54.0
133.068118 2148.0
134.072354 798.0
135.062151 60.0
135.079221 39.0
137.061803 15.0
139.048445 16.0
141.070338 54.0
143.07046 25.0
144.044677 29.0
144.064646 80.0
145.051653 1549.0
146.083469 684.0
147.071405 5132.0
147.712443 17.0
149.059687 46.0
150.058824 20.0
151.04806 172.0
152.061086 83.0
153.064152 90.0
154.070528 50.0
155.042385 21.0
155.060685 40.0
156.065031 52.0
156.077251 37.0
157.052957 52.0
157.060327 87.0
158.067403 31.0
158.077253 31.0
159.081419 222.0
160.052816 101.0
161.047052 41.0
162.076798 151.0
163.062284 998.0
163.568052 24.0
164.09467 6445.0
165.073687 359.0
166.070753 31.0
167.074629 52.0
168.056115 60.0
168.073895 36.0
168.086585 27.0
169.053231 103.0
169.081261 45.0
170.069888 17.0
171.070374 148.0
171.078064 484.0
173.051806 106.0
173.094336 39.0
175.065379 35.0
175.074459 125.0
176.067435 38.0
177.055421 34.0
177.093221 35.0
178.076217 26.0
179.072413 89.0
180.0885 1183.0
181.036266 21.0
181.054726 73.0
181.073176 56.0
182.081682 20.0
183.074428 82.0
183.082378 65.0
185.074701 41.0
185.093361 64.0
186.055517 36.0
187.059033 50.0
187.069743 54.0
188.089429 16.0
189.075505 34.0
189.084925 68.0
190.069552 22.0
190.998518 21.0
191.071638 40.0
192.981601 17.0
193.01018 35.0
194.086836 19.0
195.065243 50.0
197.091285 37.0
197.096775 110.0
199.066987 211.0
200.081384 14.0
201.09281 512.0
202.080326 20.0
204.078008 33.0
205.072825 43.0
206.106611 22.0
207.033047 64.0
207.061247 78.0
208.032203 18.0
209.081919 74.0
210.107306 35.0
211.061172 34.0
213.079784 101.0
214.07047 16.0
215.073497 19.0
215.106547 36.0
217.073629 51.0
217.092399 20.0
219.075761 13.0
222.10204 28.0
225.081469 500.0
227.100921 60.0
227.109771 88.0
229.076013 43.0
231.084976 114.0
233.113168 19.0
237.081523 310.0
242.103514 22.0
243.10139 270.0
245.115592 28.0
247.096525 31.0
249.100887 26.0
255.090595 1122.0
259.121149 14.0
261.111872 409.0
263.132434 40.0
267.091279 25.0
269.117151 40.0
272.11293 28.0
273.097936 743.0
281.050296 35.0
281.143926 34.0
285.113091 38.0
290.127051 33.0
291.110688 90.0
296.133069 27.0
308.137023 47.0
309.111079 50.0
309.117969 854.0
314.16071 442.0
315.123356 23.0
326.149435 111.0
336.051097 11.0
340.141751 18.0
353.139962 15.0
371.146914 15.0
407.198347 15.0
419.165501 27.0
425.175668 12.0
438.174979 6.0
460.174555 60.0
460.193475 104.0
460.212365 85.0
460.258605 66.0

