>compound 
>formula C35H54O14
>parentmass 716.3851774144
>ionization [M + H3N + H]+
>instrumentation Unknown (LCMS)
>source file:/Users/fanzhoukong/Documents/GitHub/Libgen/data/EAD_PFP/0_unknown_/spectrum.ms
>quality UNKNOWN

>ms2peaks
50.014663 177.0
51.023576 475.0
52.029828 119.0
53.038071 381.0
54.034373 27.0
55.018886 194.0
55.054496 113.0
56.051868 24.0
57.032311 241.0
60.020068 75.0
61.028341 174.0
62.014153 42.0
63.021866 211.0
64.029078 29.0
65.039531 1301.0
66.041963 64.0
66.045943 117.0
67.055286 492.0
68.025398 20.0
69.034231 575.0
71.013055 155.0
73.02738 235.0
74.016023 34.0
75.011315 54.0
75.023195 34.0
76.029488 67.0
77.0399 1380.0
78.041403 118.0
79.053735 597.0
80.049798 129.0
81.03358 21.0
81.05298 323.0
81.07062 135.0
83.050405 33.0
83.085225 62.0
85.02968 1794.0
87.033175 34.0
89.03135 73.0
89.03782 207.0
90.045442 47.0
91.054995 2324.0
92.059837 313.0
93.07115 275.0
94.056622 73.0
95.074025 88.0
95.085485 147.0
97.0297 1259.0
98.034892 40.0
99.047205 62.0
101.03525 25.0
103.047015 67.0
103.052985 124.0
104.057837 45.0
105.07159 595.0
106.072092 52.0
107.085445 206.0
108.082227 35.0
109.028379 132.0
109.072369 71.0
110.999114 31.0
112.009757 24.0
112.998949 43.0
114.034322 57.0
115.056554 770.0
116.055917 54.0
117.070189 497.0
118.062272 49.0
118.071852 36.0
119.087394 373.0
120.081527 44.0
121.084099 102.0
121.100269 196.0
122.090842 36.0
123.037634 26.0
123.044154 42.0
123.077844 44.0
126.031881 28.0
126.049481 16.0
127.039074 351.0
127.044594 860.0
128.062456 521.0
129.067699 413.0
130.073511 184.0
131.085474 465.0
131.092204 111.0
132.020296 53.0
132.074346 21.0
133.096289 150.0
134.107441 18.0
135.082554 78.0
135.116724 80.0
137.088129 32.0
137.096179 55.0
139.057654 49.0
141.071479 221.0
142.075051 157.0
143.086864 213.0
145.054038 2203.0
145.968661 32.0
146.089421 30.0
147.079763 58.0
147.107093 77.0
147.115413 126.0
148.086576 33.0
148.112806 23.0
149.099208 38.0
149.129118 86.0
149.962901 34.0
151.057753 82.0
152.062366 231.0
153.070308 292.0
154.064541 59.0
154.073051 115.0
155.086403 248.0
156.082256 51.0
156.089596 93.0
157.100958 427.0
158.092171 35.0
158.106951 59.0
159.118633 344.0
160.112456 24.0
161.115578 76.0
161.132988 258.0
162.0545 88.0
162.538732 17.0
163.063703 3218.0
164.053455 29.0
164.064745 41.0
165.071358 301.0
166.0798 69.0
167.072293 61.0
167.082423 174.0
168.069025 34.0
168.080455 83.0
169.103138 178.0
170.09185 39.0
170.10717 60.0
171.120593 193.0
172.115185 31.0
173.137128 131.0
174.14013 38.0
175.109723 38.0
175.144733 64.0
176.080725 164.0
176.108015 61.0
177.092218 162.0
177.162608 33.0
178.07912 93.0
178.09351 88.0
179.075362 159.0
179.079283 183.0
180.090135 217.0
181.074817 60.0
181.093257 137.0
182.08333 39.0
182.09655 60.0
183.103932 39.0
183.119852 217.0
184.126065 44.0
185.133687 374.0
186.05053 23.0
187.147842 159.0
188.124725 25.0
189.077227 50.0
189.089357 104.0
190.08614 37.0
191.028692 28.0
191.076092 100.0
191.080152 91.0
191.099112 42.0
192.072675 24.0
192.091685 14.0
192.110695 28.0
192.973857 24.0
192.988827 34.0
193.103167 59.0
193.114057 45.0
194.09546 24.0
194.10501 36.0
195.094392 33.0
195.124512 89.0
196.110995 31.0
197.134367 242.0
198.12455 43.0
198.14247 52.0
199.147612 90.0
200.158065 22.0
201.082177 19.0
201.134967 46.0
201.162757 44.0
202.079409 50.0
203.098692 52.0
203.141962 27.0
204.068724 71.0
205.085947 51.0
205.112627 97.0
206.108539 22.0
207.030752 73.0
207.095602 34.0
208.031314 29.0
209.081047 23.0
209.134877 55.0
210.102169 21.0
211.147122 74.0
213.167587 62.0
215.101392 50.0
215.144492 22.0
215.173222 26.0
216.093884 18.0
217.090096 18.0
217.118967 54.0
219.116971 24.0
219.135832 35.0
221.125606 45.0
223.146301 107.0
225.151206 58.0
225.167376 103.0
227.144421 27.0
227.179851 49.0
228.111014 23.0
228.187954 22.0
229.128596 103.0
230.132109 47.0
231.136311 190.0
233.069026 77.0
233.130346 30.0
235.143461 27.0
235.162991 33.0
237.165226 79.0
238.172569 16.0
239.162311 41.0
239.177471 36.0
241.068916 41.0
241.116066 24.0
241.167786 19.0
243.135801 93.0
245.160876 110.0
246.165058 22.0
247.081971 48.0
247.151261 21.0
249.165136 61.0
251.179401 117.0
252.191153 14.0
253.075555 53.0
253.198676 50.0
255.13997 24.0
255.185351 41.0
257.157795 122.0
259.08422 30.0
259.16778 21.0
261.144465 30.0
261.166625 20.0
263.18424 43.0
265.023015 32.0
265.195265 34.0
267.00423 22.0
269.190475 48.0
271.08557 207.0
273.183165 21.0
275.0727 15.0
275.1247 35.0
277.182385 43.0
277.195445 179.0
278.204328 19.0
279.2101 540.0
280.219342 23.0
281.049735 78.0
281.213975 36.0
281.228775 98.0
282.055717 19.0
282.195577 18.0
283.1657 42.0
284.185362 22.0
285.182035 26.0
289.092934 655.0
293.208235 40.0
293.226705 131.0
295.20947 61.0
295.23641 46.0
295.2448 92.0
296.215172 39.0
297.207364 55.0
297.227655 184.0
299.210329 19.0
299.218809 48.0
299.239139 76.0
300.243172 17.0
303.178389 26.0
303.209119 101.0
305.192794 28.0
307.109089 29.0
309.182984 16.0
310.220797 22.0
311.222349 60.0
311.243109 184.0
312.242832 83.0
313.252844 70.0
315.235999 26.0
319.210589 15.0
321.223014 442.0
323.171329 17.0
323.203039 185.0
324.103611 20.0
325.116703 2704.0
329.216904 22.0
330.253956 21.0
337.215463 45.0
337.220863 111.0
338.111916 26.0
338.227206 183.0
339.235058 5168.0
340.235391 39.0
341.204603 91.0
341.217273 218.0
342.140766 162.0
344.196861 16.0
355.208238 28.0
355.224838 178.0
356.20223 66.0
356.23736 917.0
357.243893 7664.0
358.246305 54.0
359.224118 46.0
372.2308 24.0
373.235082 61.0
374.250185 1237.0
375.255287 836.0
379.264327 15.0
384.22928 19.0
385.236142 162.0
392.257009 17.0
392.291949 20.0
397.239622 23.0
399.262977 14.0
409.236971 25.0
453.23689 15.0
483.277344 35.0
501.268899 25.0
501.282059 116.0
518.243651 21.0
518.290461 30.0
519.294553 1105.0
536.306065 40.0
537.277508 25.0
537.304728 99.0
542.19335 24.0
547.296633 51.0
554.31802 20.0
554.33419 27.0
623.319651 40.0
623.353891 30.0
637.373035 22.0
672.399122 16.0
680.347991 59.0
681.347444 47.0
715.387748 24.0
716.216 18.0
716.24743 34.0
716.3366 127.0
716.36279 228.0
716.386411 297.0
716.404781 212.0

