>compound 
>formula C19H27NO12
>parentmass 484.14254630948005
>ionization [M + Na]+
>instrumentation Unknown (LCMS)
>source file:/Users/fanzhoukong/Documents/GitHub/Libgen/data/EAD_PFP/0_unknown_/spectrum.ms
>quality UNKNOWN

>ms2peaks
50.013304 157.0
51.020804 293.0
52.029865 92.0
53.038105 94.0
55.053815 170.0
56.048255 26.0
57.070105 27.0
60.981745 44.0
62.013465 39.0
63.022735 158.0
65.033305 21.0
65.037255 681.0
66.039685 102.0
67.052185 130.0
68.044905 21.0
68.993655 231.0
70.059625 24.0
73.006585 13.0
74.016165 36.0
75.010615 100.0
75.019945 41.0
76.030495 53.0
77.037475 740.0
78.044165 175.0
79.053025 294.0
80.049965 74.0
81.068145 80.0
82.047495 23.0
83.006845 49.0
84.015765 36.0
86.010075 13.0
87.023325 13.0
89.038945 137.0
90.046585 24.0
91.054275 1425.0
92.055365 148.0
93.066646 46.0
94.042596 32.0
94.062546 20.0
95.008356 32.0
95.046556 26.0
95.083806 32.0
95.950266 20.0
97.029946 27.0
98.098186 13.0
102.042376 37.0
102.046336 69.0
103.046286 58.0
103.052256 97.0
104.050116 65.0
105.055796 53.0
106.062276 45.0
107.047206 92.0
111.002496 31.0
111.038626 17.0
113.002366 69.0
113.016946 39.0
115.049506 58.0
115.053716 239.0
116.055176 29.0
117.049306 55.0
117.062026 77.0
118.068976 22.0
119.053516 16.0
119.084516 26.0
120.052866 23.0
121.020836 30.0
121.067186 27.0
123.072746 29.0
125.020286 25.0
126.047626 62.0
127.036106 15.0
127.047156 36.0
128.057276 39.0
128.062806 193.0
129.052476 19.0
130.062706 78.0
130.989396 25.0
131.070136 30.0
133.058236 14.0
135.092067 22.0
138.028377 17.0
139.040727 43.0
140.046327 40.0
141.056757 139.0
142.075457 38.0
143.048617 86.0
143.063847 39.0
144.056827 31.0
144.078007 39.0
145.062707 17.0
145.086307 59.0
145.965537 26.0
146.070887 16.0
147.965427 34.0
149.030267 27.0
150.046117 21.0
151.052177 38.0
152.061587 84.0
153.065897 22.0
153.068317 104.0
154.022417 22.0
154.056477 31.0
154.066217 31.0
155.033177 104.0
156.036197 26.0
156.068027 29.0
157.051067 28.0
158.077837 42.0
158.097537 32.0
159.117847 23.0
160.110437 14.0
162.997887 47.0
163.052927 40.0
164.060207 30.0
165.069307 91.0
166.058817 29.0
166.070167 20.0
167.030997 53.0
167.066447 29.0
167.074037 38.0
168.040307 94.0
169.046287 300.0
170.070607 14.0
170.102547 19.0
171.024987 158.0
172.033427 45.0
173.043537 311.0
174.126408 14.0
178.067878 34.0
178.077038 47.0
179.069308 17.0
179.085048 13.0
180.040698 28.0
180.074868 42.0
181.085888 14.0
182.056098 45.0
182.087818 35.0
183.069998 21.0
185.039608 90.0
186.093838 14.0
188.037938 23.0
189.041408 19.0
189.053538 39.0
190.062388 12.0
190.995418 36.0
192.080028 14.0
192.981228 45.0
193.001638 15.0
195.103168 23.0
197.042788 27.0
200.063038 18.0
201.054988 20.0
202.081398 20.0
204.077708 16.0
206.088038 21.0
207.031348 102.0
208.034748 24.0
209.017908 14.0
210.097088 19.0
211.058068 16.0
212.064038 25.0
212.074008 22.0
213.040918 25.0
215.050288 33.0
216.062829 43.0
216.890149 22.0
218.041509 116.0
220.082989 20.0
222.107709 15.0
224.069819 14.0
225.043079 40.0
227.052059 24.0
228.059879 27.0
229.065499 363.0
230.088189 35.0
231.092289 20.0
240.057689 15.0
241.066549 20.0
243.049429 178.0
244.056919 14.0
245.064969 44.0
248.992689 20.0
250.987629 32.0
256.05377 24.0
257.05956 87.0
258.07205 21.0
259.07705 38.0
260.08718 21.0
264.09481 13.0
265.02853 35.0
266.01983 17.0
266.97775 29.0
267.99996 20.0
271.07986 88.0
273.05279 38.0
273.05926 289.0
275.0751 14.0
276.09802 32.0
281.0259 20.0
281.05053 142.0
282.05157 16.0
283.061 22.0
283.07913 23.0
285.0538 14.0
287.07852 51.0
288.09191 29.0
289.0621 31.0
289.09374 69.0
290.104 31.0
299.073911 166.0
301.093321 178.0
303.071801 23.0
304.078821 13.0
305.102931 52.0
307.097921 57.0
307.104791 71.0
307.116821 95.0
315.069911 36.0
317.081481 633.0
317.084951 1061.0
318.092281 26.0
332.071441 19.0
333.080841 39.0
333.093321 73.0
334.079191 26.0
334.091731 159.0
335.113121 993.0
348.107262 82.0
349.096772 26.0
349.129722 152.0
350.082182 235.0
352.101312 326.0
361.126982 38.0
364.094872 17.0
364.109832 22.0
377.120202 31.0
377.129722 30.0
378.123442 31.0
380.097593 861.0
391.137413 30.0
392.104793 84.0
392.137753 55.0
394.103393 32.0
394.115053 429.0
395.136713 19.0
400.613863 16.0
406.116823 19.0
407.110443 18.0
408.097353 73.0
408.144863 40.0
410.116423 55.0
410.132293 56.0
411.130793 13.0
420.133874 10.0
421.132414 31.0
421.150514 161.0
422.103974 32.0
423.131044 121.0
424.117004 61.0
424.139184 45.0
427.128324 34.0
436.107514 41.0
436.134124 76.0
437.145354 1618.0
438.120844 41.0
438.149534 131.0
439.124084 90.0
443.257904 6.0
450.142114 46.0
453.135864 123.0
454.139434 119.0
454.154054 47.0
459.913264 17.0
465.131805 15.0
466.097835 104.0
466.138025 261.0
467.158015 42.0
468.147335 35.0
468.153715 56.0
482.107725 21.0
482.129215 275.0
482.512175 29.0
482.529385 84.0
482.548765 64.0
483.112735 39.0
483.138575 43.0
483.440065 19.0
483.687805 15.0
484.148985 12985.0

