>compound 
>formula C20H18NO4
>parentmass 359.11280406285005
>ionization [M + Na]+
>instrumentation Unknown (LCMS)
>source file:/Users/fanzhoukong/Documents/GitHub/Libgen/data/EAD_PFP/0_unknown_/spectrum.ms
>quality UNKNOWN

>ms2peaks
105.058179 11.0
114.046513 11.0
115.055134 272.0
116.049215 44.0
117.056037 45.0
117.066637 45.0
119.08488 69.0
121.075103 64.0
124.010607 11.0
126.0469 81.0
127.056352 87.0
128.063183 278.0
129.069535 93.0
130.067536 30.0
131.080598 32.0
149.022244 78.0
150.048876 46.0
150.918917 24.0
151.056157 118.0
152.061959 437.0
153.06988 137.0
153.09534 126.0
155.060353 129.0
156.056135 58.0
156.090405 83.0
157.096846 95.0
158.083108 53.0
160.015351 62.0
161.094022 85.0
161.123862 49.0
163.049515 160.0
163.093295 70.0
164.050516 29.0
165.065898 193.0
166.069249 75.0
167.045271 28.0
167.057931 107.0
167.080711 106.0
168.067322 103.0
169.061914 122.0
171.080417 53.0
171.102207 46.0
173.09028 50.0
175.040583 174.0
176.047764 36.0
177.073516 61.0
178.077377 110.0
179.069659 92.0
180.08047 135.0
181.074362 105.0
183.042505 33.0
183.065025 50.0
184.059136 106.0
185.095908 247.0
187.073661 83.0
188.083962 26.0
189.068673 153.0
191.003856 62.0
191.043126 110.0
192.081708 71.0
192.985629 67.0
193.099959 40.0
194.093621 30.0
195.092552 49.0
197.059625 45.0
198.064767 35.0
199.097368 38.0
200.04396 37.0
201.055301 112.0
203.018614 28.0
204.082216 36.0
205.033557 33.0
207.04012 136.0
208.044952 60.0
209.056473 61.0
209.134363 55.0
210.100245 29.0
211.034176 28.0
211.074036 35.0
211.098216 38.0
213.086989 184.0
215.076452 48.0
216.080423 47.0
217.086705 91.0
218.083776 28.0
219.126618 59.0
221.117801 76.0
222.051072 34.0
223.053604 90.0
224.073065 46.0
225.050737 130.0
226.065908 56.0
227.0686 79.0
228.043911 87.0
228.083861 87.0
229.070243 158.0
229.086563 184.0
231.101536 48.0
233.080459 47.0
237.062114 68.0
238.061666 43.0
239.060287 74.0
239.076957 56.0
240.076179 294.0
241.05469 95.0
241.0851 191.0
242.058032 51.0
243.064993 305.0
244.064865 58.0
245.083656 57.0
247.045979 66.0
249.139822 71.0
252.063047 51.0
253.085908 250.0
254.05776 45.0
255.067451 159.0
256.039952 30.0
256.228093 668.0
257.045694 121.0
257.058264 118.0
258.050305 101.0
259.097847 216.0
260.215439 30.0
261.14546 59.0
263.140763 77.0
263.205913 50.0
265.024036 72.0
266.053667 32.0
267.030849 84.0
268.07561 151.0
269.043662 39.0
269.082212 138.0
270.055293 40.0
271.063995 145.0
272.069726 146.0
273.074098 181.0
275.195621 38.0
277.178534 40.0
278.218425 70.0
279.075297 51.0
280.067908 26.0
281.060619 124.0
282.051831 54.0
282.086381 66.0
283.062882 172.0
284.095594 29.0
285.049115 99.0
285.065625 163.0
286.047287 51.0
286.075457 56.0
288.20855 43.0
291.156364 38.0
291.203184 69.0
292.202026 60.0
295.05741 50.0
295.22064 57.0
297.063233 110.0
297.075043 164.0
298.080515 278.0
299.060616 348.0
300.066048 407.0
301.071479 1112.0
305.212695 61.0
306.216417 72.0
309.170281 48.0
311.059294 123.0
312.096795 856.0
313.070157 202.0
314.078028 213.0
315.08405 835.0
316.089941 44.0
316.124761 12.0
323.142502 43.0
325.070115 75.0
326.068806 27.0
327.081438 214.0
328.056569 472.0
329.07049 715.0
339.088265 62.0
340.095587 132.0
341.140598 114.0
343.081161 5422.0
344.092603 1787.0
347.112047 16.0
357.095092 246.0
357.950843 42.0
358.102843 154.0
359.125005 8213.0

