>compound 
>formula C10H12O2
>parentmass 165.0910106259
>ionization [M + H]+
>instrumentation Unknown (LCMS)
>source file:/Users/fanzhoukong/Documents/GitHub/Libgen/data/EAD_PFP/0_unknown_/spectrum.ms
>quality UNKNOWN

>ms2peaks
50.015195 322.0
51.024792 984.0
52.03105 155.0
53.039997 489.0
54.038475 12.0
55.020093 215.0
55.93507 8.0
56.850938 8.0
56.943298 15.0
57.035738 813.0
59.049243 29.0
59.930991 10.0
60.984408 26.0
61.008118 9.0
62.015366 32.0
63.023073 483.0
64.031841 167.0
65.040729 1414.0
66.047946 471.0
67.055684 238.0
68.026601 12.0
68.049231 8.0
68.995549 102.0
69.070429 6.0
72.93903 17.0
74.016377 96.0
75.015905 15.0
75.020995 41.0
76.031532 71.0
77.04367 1394.0
78.037407 7.0
78.046927 623.0
79.055795 1376.0
80.049233 39.0
81.03564 894.0
82.070688 26.0
83.085515 6.0
84.950481 6.0
85.051641 6.0
87.022476 15.0
88.032443 5.0
89.038991 170.0
90.045689 48.0
91.056166 1809.0
92.027184 557.0
93.041131 44.0
93.059081 30.0
93.069481 41.0
94.042589 532.0
95.049407 103.0
95.084746 6.0
95.953124 7.0
96.057744 9.0
96.083664 6.0
97.94975 12.0
97.96914 6.0
99.994365 11.0
100.935012 23.0
102.04625 95.0
103.055137 1085.0
104.062995 699.0
105.071742 1808.0
106.06619 30.0
107.052138 635.0
108.059955 128.0
109.031583 1208.0
110.036331 49.0
110.999228 19.0
113.002173 27.0
113.038623 6.0
114.046981 7.0
115.055599 750.0
116.059166 78.0
117.071334 310.0
118.044251 15.0
118.059151 28.0
119.075709 20.0
119.086399 149.0
120.056907 6.0
120.069786 7.0
121.065834 289.0
122.037862 588.0
123.045289 32.0
123.052899 35.0
123.060499 16.0
123.070279 27.0
123.083329 121.0
124.053587 2896.0
125.061604 23.0
126.040712 10.0
126.046212 25.0
127.05456 60.0
128.062487 164.0
129.055475 12.0
129.071055 43.0
130.067932 85.0
131.05183 812.0
132.059698 526.0
133.065765 977.0
134.071143 7.0
135.047261 658.0
137.060586 887.0
139.054141 22.0
140.051699 10.0
141.070266 31.0
141.926744 7.0
143.073921 7.0
144.079889 23.0
145.068116 16.0
145.094096 5.0
145.968604 21.0
146.077504 5.0
147.079702 138.0
148.110339 7.0
149.060847 193.0
150.069584 582.0
151.056462 42.0
152.06347 70.0
153.070197 44.0
154.068065 36.0
154.991143 7.0
155.070412 31.0
155.080182 15.0
156.06867 10.0
156.08459 20.0
157.076268 28.0
157.086078 13.0
158.098195 19.0
159.090063 22.0
160.08875 7.0
160.11601 6.0
161.095548 12.0
162.045616 9.0
162.130445 6.0
163.053533 18.0
163.064793 76.0
163.074803 80.0
164.063311 69.0
165.081258 640.0

