>compound 
>formula C25H45N5O10
>parentmass 576.3239236682
>ionization [M + H]+
>instrumentation Unknown (LCMS)
>source file:/Users/fanzhoukong/Documents/GitHub/Libgen/data/EAD_PFP/0_unknown_/spectrum.ms
>quality UNKNOWN

>ms2peaks
50.012585 40.0
51.020091 115.0
52.026337 43.0
53.038843 105.0
55.049514 147.0
56.04907 28.0
57.059096 25.0
60.980379 30.0
62.011335 36.0
63.02138 135.0
65.034332 514.0
65.036702 674.0
66.036748 114.0
67.050844 119.0
68.993145 156.0
70.063221 15.0
72.040873 13.0
74.014024 19.0
75.01865 48.0
76.029196 110.0
77.037912 428.0
78.041148 140.0
79.050013 168.0
80.053079 102.0
81.067755 79.0
82.064871 30.0
84.080073 91.0
85.086438 19.0
87.02208 7.0
89.034021 123.0
90.043497 53.0
91.053053 1387.0
92.055089 164.0
93.067325 32.0
94.060391 46.0
95.049176 19.0
95.950032 15.0
98.060134 11.0
100.036365 125.0
102.085747 98.0
102.089697 132.0
103.052083 99.0
104.051949 34.0
105.067694 59.0
106.0692 22.0
107.055186 24.0
108.077292 31.0
109.076638 7.0
110.996209 15.0
112.035885 13.0
112.99604 49.0
115.051552 46.0
115.053662 396.0
116.057238 53.0
117.059874 78.0
118.04979 23.0
118.06682 36.0
119.082356 24.0
120.078621 28.0
121.065027 28.0
122.094433 21.0
123.083629 22.0
124.074635 19.0
126.045476 64.0
127.056042 109.0
128.060658 130.0
129.063664 42.0
130.059429 66.0
130.990605 69.0
132.014021 38.0
132.079291 29.0
133.096777 20.0
137.10932 27.0
138.090686 39.0
140.060417 18.0
141.065083 30.0
142.063969 28.0
144.099381 44.0
145.970492 42.0
147.088738 22.0
147.963283 29.0
150.040385 22.0
151.048831 27.0
152.058247 159.0
153.061333 32.0
154.067709 64.0
154.083509 86.0
155.068855 91.0
155.090815 22.0
156.07444 47.0
156.09404 15.0
157.086996 44.0
158.090482 22.0
159.092238 33.0
160.114494 44.0
161.098999 11.0
162.99074 13.0
163.039531 19.0
163.054541 51.0
164.045517 23.0
165.067193 54.0
165.096133 68.0
167.075714 46.0
168.09659 71.0
169.068376 40.0
170.091482 23.0
172.074993 20.0
173.092979 10.0
174.99536 20.0
177.065842 23.0
177.069742 32.0
178.078848 63.0
178.963643 12.0
179.080304 70.0
180.08195 34.0
180.986245 20.0
181.087725 15.0
182.093641 22.0
183.110307 81.0
184.089913 36.0
185.113459 24.0
185.129449 25.0
186.034264 15.0
187.05247 9.0
188.137956 26.0
189.068942 56.0
190.073808 24.0
191.000073 40.0
191.081313 23.0
192.090139 24.0
192.981844 30.0
194.092561 16.0
195.099707 24.0
196.112213 13.0
197.127339 16.0
199.10186 11.0
200.109446 80.0
201.118182 431.0
202.079307 15.0
203.086013 26.0
203.155824 22.0
204.983464 19.0
205.081655 30.0
207.032096 89.0
208.096242 39.0
211.12715 21.0
212.119026 8.0
214.093947 8.0
215.150223 17.0
216.086679 39.0
217.078564 25.0
218.09296 16.0
219.169206 22.0
221.097958 11.0
222.115864 8.0
225.03664 16.0
225.139511 26.0
227.135623 17.0
227.150393 38.0
227.200593 30.0
228.087418 14.0
230.07425 15.0
232.102521 13.0
234.124703 13.0
239.126122 8.0
242.12278 86.0
242.12583 184.0
243.134455 750.0
244.071731 12.0
246.093033 26.0
248.114954 8.0
250.072346 8.0
251.002701 19.0
253.124123 8.0
255.079235 8.0
260.161034 9.0
265.016982 16.0
266.022638 32.0
266.108909 8.0
267.129455 47.0
268.998026 8.0
273.073459 8.0
274.089425 17.0
278.109988 8.0
281.051835 65.0
282.046321 20.0
283.047487 9.0
283.136508 18.0
287.08486 8.0
289.105112 18.0
290.125408 8.0
293.124935 11.0
300.123266 8.0
301.135602 32.0
302.120688 8.0
304.117889 14.0
307.125207 8.0
318.07467 25.0
318.193471 21.0
319.249817 10.0
320.174682 12.0
326.107397 9.0
332.090982 36.0
333.188008 74.0
334.199094 1167.0
335.177609 25.0
345.203548 15.0
348.123705 21.0
348.180375 11.0
349.197441 9.0
358.278824 8.0
360.234035 20.0
361.242491 64.0
362.112526 17.0
363.213202 24.0
364.171588 8.0
366.23465 30.0
367.232695 8.0
376.222928 22.0
377.224973 11.0
378.135009 14.0
379.240675 13.0
383.226808 11.0
388.124907 8.0
391.240285 25.0
400.231857 36.0
401.237843 103.0
404.1532 8.0
415.143283 16.0
416.19783 35.0
417.165695 8.0
418.174731 20.0
425.243842 30.0
426.250468 47.0
428.141589 31.0
431.177316 22.0
440.272799 15.0
442.248301 68.0
443.252157 849.0
445.323209 8.0
460.222675 66.0
471.200829 8.0
474.233836 47.0
475.234882 28.0
477.257264 15.0
484.177624 8.0
486.234056 16.0
488.255888 24.0
489.252143 10.0
490.249399 18.0
491.254165 16.0
498.255216 10.0
500.253677 26.0
501.259873 70.0
503.266535 28.0
504.286751 27.0
514.299199 22.0
515.274974 15.0
516.27613 62.0
516.2917 29.0
517.258196 18.0
517.420857 15.0
518.279142 92.0
519.301058 53.0
528.24648 17.0
530.231961 13.0
531.308507 54.0
531.403358 35.0
532.293443 13.0
533.286119 95.0
533.297409 151.0
533.317799 68.0
534.291015 22.0
541.276705 8.0
544.264213 37.0
544.280203 128.0
546.233704 28.0
546.306944 58.0
546.325325 60.0
552.681681 8.0
558.294504 68.0
559.31111 19.0
561.323882 46.0
561.354032 445.0
574.293197 18.0
574.476298 15.0
575.082261 22.0
575.326583 62.0
576.304498 432.0
576.318599 2138.0
576.370359 102.0

