>compound 
>formula C9H13N5O3
>parentmass 240.109115600586
>ionization [M + H]+
>instrumentation Unknown (LCMS)
>source file:/Users/fanzhoukong/Documents/GitHub/Libgen/data/NIST_MONA/0_unknown_/spectrum.ms
>quality UNKNOWN

>ms2peaks
43.02942 21.471896
44.04815 18.701981
45.03474 22.968055
54.03194 23.978973
55.03176 13.91023
56.04852 45.612616
57.04588 12.171452
60.05593 20.19814
68.0378 17.549535
69.00991 19.530934
81.04511 33.582693
82.05257 18.095431
83.05681 14.90093
84.04816 13.445208
86.03569 41.892438
95.04797 51.071573
96.0541 45.855237
97.05191 29.357056
98.06171 50.505459
106.04 18.156086
108.0519 25.879499
109.0415 63.505863
110.0682 8.855641
111.0634 10.250708
112.063 14.65831
119.0311 16.093813
120.0431 85.260817
121.0481 31.540639
123.0399 8.916296
124.0534 50.222402
126.0581 41.386979
127.0606 10.897695
133.0514 26.465831
147.0552 17.994339
149.0473 42.23615
152.0605 26.829761
161.0487 9.866559
164.0564 53.639304
165.0666 100.0
166.0755 61.564901
178.0713 23.190457
179.0821 19.793773
195.0796 11.888395

