>compound 
>formula C21H32O4
>parentmass 371.21928050964
>ionization [M + Na]+
>instrumentation Unknown (LCMS)
>source file:/Users/fanzhoukong/Documents/GitHub/Libgen/data/EAD_PFP/0_unknown_/spectrum.ms
>quality UNKNOWN

>ms2peaks
50.015134 139.0
51.024033 378.0
52.028872 36.0
53.038521 130.0
54.044189 11.0
55.018598 9.0
55.054938 221.0
55.934297 21.0
56.051577 13.0
56.964706 9.0
57.034226 17.0
57.071216 75.0
59.049213 20.0
60.984381 86.0
62.01612 30.0
63.023839 209.0
64.027918 23.0
65.040726 877.0
66.044755 46.0
67.055684 333.0
68.022563 6.0
68.996372 105.0
69.070441 23.0
71.085279 34.0
73.048687 100.0
74.014716 46.0
75.021864 32.0
76.031563 74.0
77.040262 1181.0
78.044361 129.0
79.05322 567.0
80.057158 46.0
81.068317 74.0
83.048955 80.0
84.057224 7.0
85.062532 7.0
87.02071 6.0
88.028829 14.0
89.035358 39.0
89.039058 137.0
90.047616 18.0
91.056245 1393.0
92.059214 107.0
93.069563 223.0
94.064522 32.0
95.04949 7.0
95.08483 77.0
96.057829 30.0
97.067628 401.0
99.079666 6.0
101.060143 37.0
102.046352 67.0
103.055241 177.0
104.03513 17.0
104.04911 32.0
104.05711 13.0
105.071848 308.0
106.065287 10.0
106.076387 14.0
107.048196 21.0
107.052246 67.0
107.070496 29.0
108.056005 30.0
109.064434 272.0
111.046831 158.0
113.002299 16.0
113.008549 9.0
113.036669 6.0
114.034558 7.0
114.045018 8.0
115.053636 1007.0
116.060365 118.0
117.067234 297.0
118.066743 47.0
119.086542 290.0
120.07744 23.0
120.08281 22.0
121.065979 370.0
122.069398 13.0
122.080218 18.0
123.080217 212.0
125.061764 37.0
126.046373 48.0
127.056922 226.0
128.058211 40.0
128.063751 938.0
129.05898 536.0
130.075908 101.0
131.085647 235.0
132.019346 14.0
132.063246 15.0
133.098715 86.0
134.078124 9.0
135.082723 45.0
135.112332 10.0
137.09517 31.0
138.105249 8.0
139.062428 19.0
140.048407 14.0
141.069295 195.0
142.077534 75.0
143.084673 187.0
144.091822 23.0
145.088371 15.0
145.094281 48.0
145.101361 120.0
145.968789 11.0
146.072959 13.0
147.082258 115.0
147.114348 8.0
147.966317 14.0
148.086697 18.0
148.114117 9.0
149.075396 11.0
149.095736 139.0
150.046985 26.0
151.059073 44.0
151.067513 23.0
151.078343 20.0
152.061272 277.0
153.070411 252.0
154.0768 120.0
155.075519 25.0
155.086499 218.0
156.089707 97.0
157.064206 11.0
157.101036 382.0
158.077465 14.0
158.083625 33.0
158.093485 25.0
159.084104 40.0
159.096464 76.0
159.116234 215.0
160.090223 19.0
160.117483 8.0
161.095771 246.0
162.10197 38.0
163.055009 17.0
163.073779 27.0
163.083789 18.0
163.091299 34.0
163.110049 61.0
164.062288 44.0
165.072677 283.0
166.076055 53.0
167.078694 25.0
167.083744 149.0
168.089403 40.0
169.096802 45.0
169.099352 192.0
170.072701 13.0
170.093151 10.0
170.105921 23.0
171.078329 13.0
171.114219 117.0
172.110068 16.0
173.094627 50.0
173.110097 46.0
173.120397 90.0
173.135877 69.0
174.102666 36.0
175.095495 7.0
175.113635 142.0
175.149935 9.0
176.063843 34.0
176.078143 10.0
176.115853 19.0
177.101352 71.0
177.118302 53.0
177.126122 12.0
178.080451 127.0
179.08322 104.0
179.10683 7.0
180.087509 37.0
181.098537 102.0
182.100526 34.0
183.102615 21.0
183.115875 212.0
184.098144 8.0
184.119414 28.0
185.096373 10.0
185.112363 28.0
185.121703 22.0
185.129683 122.0
186.098621 8.0
186.113331 17.0
187.07546 19.0
187.10895 71.0
187.12638 32.0
188.119349 8.0
189.071808 29.0
189.083948 79.0
189.098778 38.0
189.110888 10.0
189.127068 24.0
190.078027 22.0
190.997526 7.0
191.077426 37.0
191.092315 31.0
191.097735 33.0
191.116705 18.0
191.142425 11.0
192.078084 10.0
192.093014 61.0
192.981993 27.0
193.099043 56.0
194.109072 25.0
195.110781 34.0
195.116251 82.0
196.124679 14.0
197.102688 23.0
197.113688 42.0
197.130198 86.0
198.106557 11.0
198.142417 10.0
199.114386 39.0
199.132366 35.0
199.146176 44.0
200.117825 13.0
201.121003 29.0
201.127963 131.0
202.077962 55.0
203.093031 43.0
203.107001 18.0
203.137701 20.0
204.08405 15.0
204.09104 13.0
204.09944 14.0
205.099919 24.0
205.109739 22.0
206.095808 11.0
206.111278 13.0
207.034906 32.0
207.112436 26.0
208.031245 9.0
208.125915 12.0
209.096534 7.0
209.131954 90.0
210.138983 6.0
211.115712 29.0
211.122832 67.0
211.147031 67.0
212.12038 27.0
213.123149 89.0
213.146029 11.0
214.116808 13.0
214.135438 30.0
215.131457 11.0
215.142947 101.0
216.080816 6.0
217.091444 5.0
217.118864 34.0
217.140524 12.0
217.159284 14.0
218.101533 9.0
219.092212 17.0
219.122662 33.0
219.134262 25.0
220.090961 10.0
220.112761 15.0
221.11673 22.0
221.12983 57.0
222.109848 7.0
223.108137 7.0
223.131537 24.0
223.147637 44.0
224.099836 9.0
225.131965 54.0
225.155475 20.0
227.104402 20.0
227.117692 29.0
227.125062 26.0
227.145742 87.0
228.150821 14.0
229.13143 29.0
229.14476 84.0
229.15218 138.0
231.137648 147.0
233.043435 16.0
233.136165 26.0
233.151125 10.0
234.136414 7.0
235.119263 6.0
235.143293 51.0
237.12432 14.0
237.156 12.0
238.133059 10.0
239.107608 15.0
239.125788 12.0
239.136388 39.0
240.149407 6.0
241.121966 42.0
241.131096 16.0
241.150866 6.0
242.166614 12.0
243.134083 55.0
243.157003 23.0
243.179903 6.0
245.048731 6.0
245.153011 189.0
246.16025 17.0
247.135648 15.0
247.147958 18.0
249.168006 51.0
251.141934 24.0
251.179194 7.0
252.094493 8.0
253.129891 25.0
253.156381 15.0
253.195351 12.0
254.21112 79.0
255.128789 15.0
255.138189 48.0
255.174169 9.0
257.154406 333.0
259.143904 9.0
261.153692 21.0
263.174449 31.0
265.019567 11.0
265.155127 28.0
265.166297 29.0
266.023596 7.0
266.997535 184.0
267.138435 8.0
267.176854 8.0
268.973272 10.0
269.164492 36.0
269.188572 42.0
271.16913 210.0
272.207398 9.0
273.127807 7.0
273.147247 7.0
273.163447 9.0
275.156915 20.0
275.178035 39.0
276.188104 9.0
276.207634 9.0
277.157643 53.0
279.14104 31.0
279.15743 27.0
279.17379 49.0
279.18688 12.0
281.052718 86.0
282.053757 31.0
283.168655 112.0
283.186785 15.0
285.150283 16.0
289.162548 22.0
289.192538 142.0
291.175026 27.0
291.188386 13.0
293.169313 71.0
293.192783 57.0
295.172091 476.0
297.151269 8.0
297.190119 12.0
299.169276 11.0
300.203755 24.0
301.155024 6.0
302.162253 7.0
303.172901 21.0
305.194109 6.0
307.160207 13.0
307.187667 671.0
307.213427 13.0
309.184314 22.0
309.217024 17.0
311.199472 60.0
313.169199 11.0
313.177869 22.0
317.191835 234.0
317.211035 12.0
318.213293 7.0
319.171632 22.0
320.180511 8.0
325.192195 115.0
332.155747 9.0
334.192394 17.0
335.205003 1556.0
336.190382 6.0
336.220902 11.0
337.184401 46.0
338.185279 11.0
339.041538 19.0
339.120918 7.0
339.191288 10.0
341.138956 10.0
349.117276 29.0
352.046533 8.0
352.208303 73.0
353.214652 4744.0
355.069229 105.0
355.191059 14.0
358.017716 7.0
370.214421 78.0
371.21976 2106.0

