>compound 
>formula C25H24O11
>parentmass 523.12108258879
>ionization [M + Na]+
>instrumentation Unknown (LCMS)
>source file:/Users/fanzhoukong/Documents/GitHub/Libgen/data/EAD_PFP/0_unknown_/spectrum.ms
>quality UNKNOWN

>ms2peaks
115.053836 125.0
116.056345 55.0
117.055784 37.0
118.065893 38.0
119.074992 31.0
121.100699 22.0
123.048927 286.0
127.039502 31.0
127.051642 51.0
128.05403 57.0
130.078408 27.0
143.088472 11.0
145.966738 40.0
147.038617 95.0
147.964246 23.0
149.039834 25.0
150.034113 56.0
151.041352 55.0
151.056992 85.0
152.062801 204.0
153.064679 113.0
153.073159 69.0
154.066198 44.0
155.045367 36.0
155.086847 84.0
156.079026 68.0
157.069475 38.0
157.097704 60.0
158.097533 37.0
159.101762 68.0
160.014981 26.0
161.06381 80.0
163.041627 262.0
164.057656 25.0
165.057965 59.0
165.064245 222.0
167.073992 74.0
168.066931 53.0
169.06662 47.0
169.08701 29.0
170.088438 35.0
171.108217 21.0
173.021575 141.0
175.050552 46.0
176.060371 31.0
177.07179 24.0
178.061269 47.0
178.079579 66.0
179.079737 61.0
180.055076 30.0
180.089256 46.0
181.069985 43.0
182.081134 30.0
183.077872 36.0
185.01819 19.0
185.05284 30.0
187.038407 248.0
189.054785 41.0
190.077144 30.0
191.002073 77.0
191.083302 22.0
192.089421 20.0
192.98656 49.0
193.09136 22.0
196.085386 26.0
197.063305 56.0
198.069834 27.0
200.044901 22.0
202.078489 26.0
203.032128 49.0
204.038386 20.0
205.056955 121.0
207.034033 123.0
209.07442 45.0
210.123919 39.0
211.100618 29.0
213.120845 45.0
215.032893 256.0
216.042502 946.0
217.04871 77.0
219.079748 41.0
223.063373 26.0
225.05467 52.0
226.069839 56.0
227.032678 752.0
229.049005 20.0
230.056784 1663.0
231.065293 49.0
234.081589 21.0
235.110888 17.0
237.066146 31.0
241.049611 20.0
243.049218 41.0
243.062958 64.0
245.032536 58.0
245.044806 5253.0
246.050274 220.0
247.062403 80.0
248.146072 28.0
249.000181 22.0
251.001378 32.0
253.051106 67.0
254.058795 51.0
255.070043 141.0
256.066072 138.0
256.073922 113.0
257.043611 1022.0
258.05292 4267.0
259.056308 62.0
261.099026 32.0
263.086203 22.0
265.020291 50.0
267.001519 35.0
270.045095 25.0
270.053145 269.0
271.048934 44.0
271.058614 244.0
272.065962 156.0
273.057391 60.0
273.076791 197.0
275.034219 38.0
276.042397 22.0
279.051854 12.0
281.055151 59.0
283.044219 17.0
285.030366 22.0
285.086576 44.0
287.054984 35.0
290.19878 35.0
292.018968 33.0
292.037378 65.0
293.046066 183.0
295.066914 21.0
296.069013 40.0
297.081221 124.0
299.044779 24.0
301.069196 2549.0
305.083771 36.0
307.058109 59.0
309.043977 68.0
313.074792 79.0
314.074 40.0
315.086939 170.0
317.039267 117.0
318.048265 84.0
318.062245 28.0
319.069354 53.0
321.072552 32.0
323.793808 12.0
333.069707 22.0
335.055354 1011.0
336.060273 50.0
337.072112 33.0
339.087669 90.0
344.101093 19.0
348.097728 30.0
349.063427 189.0
349.072577 438.0
350.079966 298.0
351.085125 288.0
353.068452 123.0
355.08509 37.0
356.091828 26.0
357.101897 571.0
359.053865 33.0
360.084833 52.0
361.065152 192.0
362.078481 60.0
362.100851 31.0
363.06524 38.0
363.0895 111.0
364.098198 27.0
366.106676 51.0
367.083885 221.0
374.104836 43.0
375.073675 22.0
375.092665 64.0
376.087474 121.0
377.070292 5839.0
378.077271 1575.0
379.08176 808.0
380.085669 56.0
380.106689 31.0
386.100491 27.0
391.086565 200.0
392.082994 288.0
392.092674 476.0
393.086473 145.0
393.098133 455.0
394.075701 47.0
394.114581 23.0
395.07979 1755.0
396.087109 67.0
399.106975 145.0
401.123333 26.0
403.07987 86.0
404.079589 40.0
404.095339 56.0
404.122929 55.0
405.100288 206.0
407.106015 66.0
408.083004 45.0
409.092893 506.0
410.102051 50.0
417.186873 28.0
418.105792 82.0
418.464431 28.0
419.08186 452.0
420.093219 9908.0
421.095748 5984.0
422.083357 108.0
422.099437 168.0
429.231908 44.0
433.090663 67.0
434.128962 78.0
435.109251 343.0
436.119289 243.0
437.093618 909.0
438.099817 13801.0
439.111256 126.0
441.108843 27.0
445.138258 40.0
447.093576 145.0
449.075993 31.0
451.100261 157.0
452.11616 575.0
460.03039 42.0
461.096278 53.0
461.127828 82.0
461.559168 34.0
462.100217 655.0
463.103146 12562.0
464.107165 643.0
471.182686 41.0
478.114687 146.0
478.125397 639.0
479.094086 604.0
480.110995 6472.0
481.120364 4183.0
484.491179 35.0
485.990958 38.0
493.115459 37.0
495.129716 37.0
503.137756 12.0
521.111704 113.0
521.351024 53.0
521.366654 141.0
521.404674 164.0
522.422983 31.0
523.121772 25836.0

