>compound 
>formula C22H26O10
>parentmass 451.15987803368
>ionization [M + H]+
>instrumentation Unknown (LCMS)
>source file:/Users/fanzhoukong/Documents/GitHub/Libgen/data/EAD_PFP/0_unknown_/spectrum.ms
>quality UNKNOWN

>ms2peaks
124.573979 22.0
126.048919 43.0
127.046229 129.0
128.058569 126.0
128.062999 486.0
129.062679 151.0
130.068478 71.0
131.047888 288.0
131.057978 659.0
133.027898 113.0
134.037668 141.0
135.042138 103.0
135.081998 57.0
137.061177 1619.0
138.031987 61.0
139.045507 238.0
140.049977 113.0
141.054587 3144.0
142.075627 88.0
143.081576 71.0
144.053476 114.0
163.041804 255.0
164.045273 69.0
165.056873 4455.0
166.067783 123.0
167.041263 5137.0
169.050253 548.0
169.060443 239.0
171.040482 74.0
171.117372 44.0
173.060432 1070.0
174.083892 67.0
175.142762 119.0
176.050162 110.0
177.055042 2532.0
178.075851 217.0
179.047151 355.0
180.053961 213.0
181.058321 429.0
182.057541 124.0
183.067461 5501.0
183.076741 10834.0
184.58161 78.0
185.05704 236.0
186.07123 70.0
187.06809 156.0
187.10964 220.0
188.05016 98.0
189.06038 200.0
190.07466 80.0
191.06998 1149.0
192.042119 57.0
193.049379 624.0
195.059499 493.0
195.066349 1123.0
197.060779 136.0
199.077788 124.0
201.049518 126.0
201.166218 83.0
202.049458 192.0
203.033748 1370.0
204.090388 70.0
205.033327 109.0
205.052957 205.0
206.059997 132.0
207.063857 1566.0
208.037657 71.0
209.049147 165.0
210.068767 105.0
211.063837 442.0
213.058146 154.0
215.066156 178.0
215.070476 1228.0
217.051836 113.0
218.103786 90.0
219.066935 622.0
221.075315 331.0
223.067985 152.0
225.071075 304.0
225.079895 1491.0
226.065674 332.0
227.068354 222.0
228.043684 25.0
229.089274 96.0
231.067024 209.0
233.081723 260.0
235.057063 108.0
235.076593 191.0
237.075453 178.0
239.069133 239.0
240.077442 162.0
241.081812 176.0
242.095882 127.0
243.086132 103.0
245.086462 215.0
246.059742 71.0
247.064221 117.0
248.072261 70.0
249.077731 2294.0
251.096321 100.0
253.080971 445.0
254.05593 117.0
255.06405 413.0
256.07418 91.0
257.08001 259.0
259.07076 152.0
261.077139 454.0
265.054069 134.0
265.084369 66.0
267.067398 96.0
268.078538 129.0
269.081958 2495.0
270.087208 350.0
271.095998 1267.0
273.075458 380.0
275.091357 161.0
277.197837 77.0
279.060287 120.0
279.094657 136.0
281.078416 168.0
283.102156 298.0
285.075276 274.0
286.083456 67.0
287.090106 972.0
289.102035 2130.0
289.122025 9152.0
291.090895 268.0
292.997695 91.0
293.672165 23.0
295.097494 114.0
297.015674 55.0
299.097584 137.0
301.105184 2329.0
307.101303 209.0
309.097642 223.0
311.097002 162.0
312.099962 40.0
313.109752 1360.0
317.091871 148.0
323.08937 213.0
325.10869 66.0
327.12541 55.0
329.096839 89.0
331.118759 2990.0
335.084329 88.0
337.128158 64.0
341.111338 157.0
349.111307 44.0
351.191876 84.0
355.107486 525.0
355.124126 2369.0
361.102665 51.0
365.104834 80.0
367.121714 2115.0
369.202464 53.0
379.116372 1206.0
385.123541 45.0
397.12528 673.0
402.101259 24.0
405.313538 130.0
415.128787 274.0
433.309074 251.0
451.289852 478.0

