>compound 
>formula C25H32O9
>parentmass 494.2384536074901
>ionization [M + H3N + H]+
>instrumentation Unknown (LCMS)
>source file:/Users/fanzhoukong/Documents/GitHub/Libgen/data/EAD_PFP/0_unknown_/spectrum.ms
>quality UNKNOWN

>ms2peaks
50.015302 338.0
51.022113 1709.0
52.027654 35.0
53.036586 194.0
55.017368 1430.0
55.934529 26.0
57.031511 82.0
58.067452 7.0
61.026746 20.0
62.011778 46.0
63.023359 210.0
64.03136 23.0
65.038672 624.0
66.041113 44.0
66.049073 48.0
67.052014 60.0
67.055224 187.0
68.996727 44.0
69.034167 110.0
71.012169 29.0
71.032809 66.0
73.027312 71.0
74.014273 16.0
75.022285 70.0
76.029426 48.0
76.791547 39.0
77.044997 3271.0
78.048269 200.0
79.05629 1417.0
81.034393 144.0
82.044594 15.0
83.049445 61.0
85.027808 130.0
87.009351 26.0
89.038673 133.0
91.054936 1710.0
92.056017 53.0
92.063537 74.0
93.068249 44.0
93.072029 111.0
94.04231 309.0
95.051041 138.0
97.029644 143.0
98.037735 31.0
99.047146 20.0
99.991178 19.0
101.039119 39.0
102.04898 133.0
103.054912 1202.0
104.062773 93.0
105.072534 2859.0
106.692417 39.0
106.703547 125.0
106.709617 57.0
107.056997 6407.0
108.026158 96.0
114.044726 11.0
115.054398 1763.0
116.063239 158.0
117.07331 354.0
118.035602 34.0
118.043052 25.0
119.049923 762.0
119.068093 215.0
120.057854 3458.0
121.065716 2205.0
123.046268 24.0
123.079958 17.0
125.043981 17.0
126.048322 80.0
127.055574 506.0
128.061295 391.0
129.057616 34.0
129.070976 190.0
130.075688 33.0
131.047279 598.0
132.05851 441.0
132.632131 61.0
133.066861 4521.0
134.072213 171.0
135.081374 66.0
136.053155 40.0
139.056439 23.0
141.069092 37.0
142.077333 17.0
143.049325 35.0
143.061045 78.0
143.087985 67.0
144.058726 182.0
145.064597 2096.0
146.072779 698.0
147.06427 142.0
147.0702 1291.0
147.07971 1546.0
148.090081 505.0
148.567332 20.0
149.062073 5357.0
149.072833 2669.0
149.893284 36.0
150.058834 68.0
150.067234 112.0
150.398634 22.0
150.489944 14.0
151.057715 108.0
152.063507 579.0
152.437027 50.0
153.069038 382.0
154.077859 46.0
155.059521 75.0
155.085121 59.0
156.069972 68.0
156.095662 32.0
157.064063 1265.0
158.073635 1082.0
159.072846 168.0
159.081496 1150.0
160.056627 178.0
160.066547 285.0
161.060818 1638.0
162.06941 1920.0
163.053641 73.0
164.023292 18.0
164.060912 43.0
164.544363 25.0
165.093954 8879.0
165.694905 26.0
166.075945 50.0
167.073506 978.0
168.061368 39.0
169.066129 225.0
169.090329 13.0
170.07389 125.0
171.079532 1193.0
172.085573 77.0
172.090693 234.0
172.491884 27.0
173.062314 2971.0
174.068986 563.0
175.072087 200.0
175.075977 665.0
176.083268 1244.0
176.513819 30.0
177.09476 5308.0
177.10519 4654.0
177.768071 48.0
178.068631 54.0
178.079081 42.0
178.126141 29.0
179.088422 83.0
180.071684 26.0
180.083504 50.0
181.065535 187.0
182.071396 28.0
182.092546 36.0
183.081348 217.0
184.052899 27.0
184.091449 192.0
185.10033 1099.0
186.070532 96.0
187.079443 222.0
188.081684 141.0
189.092006 2007.0
190.098257 176.0
190.475277 37.0
191.109898 4992.0
192.987421 31.0
193.075891 29.0
194.077662 27.0
195.088883 71.0
195.101193 301.0
196.089005 21.0
197.060056 53.0
197.073806 71.0
197.093046 51.0
198.067967 53.0
199.075689 511.0
200.08874 24.0
201.084911 48.0
201.091851 275.0
202.083553 166.0
202.100263 263.0
203.109794 370.0
204.989117 15.0
205.088717 40.0
207.054669 30.0
207.082859 43.0
207.106829 119.0
208.055281 18.0
209.097992 64.0
209.119232 75.0
210.070883 35.0
211.075915 104.0
212.066216 22.0
212.084766 163.0
213.093167 385.0
215.07405 148.0
216.095291 28.0
217.088623 50.0
218.081344 35.0
219.069095 38.0
219.086485 41.0
220.093937 33.0
221.115358 321.0
222.092409 18.0
223.07602 75.0
224.120462 45.0
225.085033 46.0
225.132053 15.0
226.097314 46.0
227.070556 13.0
228.096177 25.0
229.075178 44.0
229.088518 43.0
230.08005 19.0
231.081181 64.0
232.077002 27.0
233.082444 62.0
233.115364 98.0
235.077326 39.0
236.083228 25.0
237.091269 144.0
238.10147 35.0
239.109262 130.0
240.076693 40.0
240.406173 20.0
241.087124 36.0
241.111464 25.0
242.101216 12.0
243.108267 59.0
244.089858 54.0
244.105168 33.0
247.078852 31.0
247.117332 14.0
249.084685 31.0
249.095515 99.0
249.109435 43.0
250.104596 61.0
250.140226 25.0
251.097108 32.0
251.115738 23.0
252.113339 26.0
253.10982 31.0
253.13473 18.0
255.100813 56.0
255.107093 150.0
255.118033 46.0
257.083925 16.0
257.105935 30.0
257.115335 41.0
257.762916 24.0
258.090157 20.0
259.101538 55.0
259.114148 35.0
260.122749 20.0
261.095351 21.0
261.130171 36.0
262.091962 28.0
263.111093 61.0
263.128583 8.0
265.027756 8.0
267.103439 40.0
268.10021 19.0
268.14995 21.0
269.106861 36.0
271.095204 16.0
273.111877 67.0
275.085689 32.0
277.126922 229.0
278.132383 308.0
279.139685 3514.0
280.880587 21.0
281.052987 42.0
282.154399 8.0
285.112532 17.0
288.132646 37.0
292.118882 24.0
293.117633 24.0
295.135396 91.0
296.144347 1868.0
297.158378 10755.0
298.42288 104.0
298.49057 106.0
298.63614 137.0
298.842711 151.0
299.140841 21.0
299.985202 32.0
300.159972 16.0
300.173552 54.0
300.477453 34.0
301.141784 21.0
303.127206 34.0
303.142556 49.0
304.188998 12.0
309.176064 68.0
313.14879 38.0
313.74022 17.0
314.151571 101.0
315.164662 5661.0
317.138175 13.0
318.178766 24.0
319.137077 26.0
320.147639 140.0
321.13699 82.0
321.15805 281.0
324.661135 18.0
326.159677 16.0
330.474742 57.0
332.093735 22.0
332.231215 35.0
335.160629 18.0
336.14415 48.0
337.147111 179.0
338.149743 27.0
339.164694 213.0
345.138942 22.0
347.079894 8.0
349.121467 25.0
351.15064 8.0
352.431311 8.0
355.165755 8.0
357.167988 27.0
357.199448 8.0
359.16469 8.0
361.140923 20.0
363.148706 28.0
364.037837 36.0
375.166112 8.0
379.157517 17.0
381.191729 17.0
384.156303 14.0
387.167077 20.0
392.371494 8.0
393.183045 8.0
404.26021 37.0
405.160841 29.0
405.172681 56.0
413.146332 8.0
423.176315 46.0
423.196485 27.0
440.293888 80.0
441.196719 21.0
458.285431 71.0
458.300101 95.0
476.156145 25.0
476.312215 59.0
494.168289 76.0
494.194439 62.0
494.220559 61.0
494.261949 49.0

