>compound 
>formula C28H32O8
>parentmass 497.21699898792
>ionization [M + H]+
>instrumentation Unknown (LCMS)
>source file:/Users/fanzhoukong/Documents/GitHub/Libgen/data/EAD_PFP/0_unknown_/spectrum.ms
>quality UNKNOWN

>ms2peaks
114.054839 73.0
115.056134 397.0
117.060183 116.0
119.072992 48.0
120.045577 133.0
121.064151 45.0
122.064296 123.0
123.08812 153.0
126.048834 96.0
127.056069 232.0
128.065093 729.0
129.073668 169.0
131.089207 191.0
147.08345 81.0
148.040195 116.0
149.04907 277.0
150.049364 101.0
151.059039 183.0
152.066043 480.0
153.072758 630.0
154.080363 263.0
155.081537 221.0
156.085922 94.0
157.066536 122.0
158.073641 67.0
159.096325 255.0
160.09255 61.0
162.076859 62.0
163.049834 394.0
164.068378 23.0
165.073733 690.0
166.073308 210.0
167.080982 286.0
169.090191 80.0
170.089056 114.0
171.09729 350.0
171.11779 199.0
173.09433 178.0
175.067949 315.0
176.041424 2329.0
177.095808 56.0
178.050043 62.0
178.065723 852.0
179.090727 187.0
180.092382 116.0
181.062566 856.0
183.123405 144.0
185.133254 166.0
187.100484 159.0
188.082588 225.0
189.091563 271.0
190.074848 104.0
191.072852 265.0
192.087067 132.0
194.048506 1499.0
195.11573 196.0
196.115885 102.0
197.09663 175.0
198.130814 37.0
199.105509 196.0
201.089848 218.0
203.085407 200.0
203.104967 402.0
204.083402 133.0
205.092246 223.0
206.102181 86.0
207.069476 566.0
209.129845 189.0
211.130674 120.0
212.099688 23.0
213.130993 203.0
215.103392 163.0
216.072847 108.0
217.090661 199.0
218.096406 68.0
219.101571 150.0
221.11591 90.0
222.071074 198.0
223.135089 134.0
225.125218 131.0
227.144847 121.0
229.090476 122.0
231.099496 583.0
233.114285 195.0
234.150439 51.0
235.151334 58.0
237.133883 91.0
239.091452 143.0
240.092217 125.0
241.105731 116.0
243.113181 55.0
245.09673 127.0
246.126874 82.0
247.100679 147.0
248.104163 36.0
249.118978 3531.0
255.137005 60.0
257.091955 98.0
258.161159 37.0
259.142694 145.0
261.117653 46.0
263.177952 88.0
265.056572 72.0
269.14548 69.0
270.031735 23.0
271.138779 80.0
273.176648 41.0
275.144167 23.0
279.115086 108.0
281.051265 145.0
281.185974 113.0
282.08523 23.0
285.085943 88.0
287.130672 310.0
291.15677 23.0
295.140209 69.0
297.180088 46.0
299.201557 287.0
305.125685 89.0
309.168823 81.0
317.209239 34.0
323.119737 23.0
327.116966 52.0
331.169064 49.0
332.089559 701.0
337.164421 158.0
339.16402 78.0
341.17496 53.0
343.081139 203.0
345.189168 154.0
350.100631 243.0
357.139353 71.0
359.232512 24.0
363.19819 146.0
365.19104 38.0
371.134427 24.0
372.108852 717.0
373.164046 71.0
377.177145 67.0
379.173594 67.0
385.152321 45.0
385.194621 124.0
389.11132 112.0
390.192244 24.0
391.193309 96.0
392.145234 94.0
401.172475 42.0
403.121254 1385.0
407.204912 61.0
409.211831 55.0
411.150201 122.0
418.177873 24.0
423.225175 73.0
426.312199 24.0
433.198571 136.0
435.20717 68.0
437.19791 365.0
448.131661 79.0
451.137414 1368.0
455.203882 58.0
461.20529 177.0
473.596703 24.0
479.207232 316.0
497.219525 2044.0
497.232625 2104.0

