>compound 
>formula C48H48N14O14S
>parentmass 1077.3267944574395
>ionization [M + H]+
>instrumentation Unknown (LCMS)
>source file:/Users/fanzhoukong/Documents/GitHub/Libgen/data/EAD_PFP/0_unknown_/spectrum.ms
>quality UNKNOWN

>ms2peaks
114.041239 11.0
115.057184 157.0
117.059123 77.0
117.069723 57.0
119.090092 25.0
127.051649 133.0
128.063983 277.0
129.063658 52.0
130.075013 76.0
131.070147 40.0
148.111705 33.0
151.054209 264.0
152.067253 278.0
153.065498 100.0
154.045113 73.0
155.064447 77.0
156.068792 48.0
156.087142 35.0
157.091106 78.0
158.072421 22.0
158.097051 48.0
159.062956 55.0
160.08511 25.0
161.094365 44.0
162.046939 37.0
163.059844 59.0
165.064923 122.0
165.071213 611.0
166.070798 127.0
167.069602 63.0
167.084782 53.0
168.057397 27.0
168.077727 95.0
169.072351 32.0
170.077566 24.0
170.099286 65.0
171.003761 120.0
172.009555 116.0
173.01572 74.0
174.026115 31.0
174.106244 47.0
176.062224 98.0
177.033228 41.0
178.064413 22.0
178.081413 81.0
179.074997 55.0
179.086787 79.0
180.072672 66.0
181.065206 34.0
182.073681 100.0
183.092915 43.0
184.09506 22.0
186.02068 28.0
186.999984 67.0
188.079918 24.0
189.064613 102.0
190.066738 83.0
191.076932 33.0
192.077567 41.0
192.084357 71.0
192.980122 88.0
194.052596 36.0
194.097616 34.0
197.01962 25.0
198.010865 29.0
198.023275 78.0
199.019819 76.0
200.028554 111.0
201.013448 82.0
201.034288 93.0
202.062043 45.0
203.142657 41.0
204.062412 42.0
204.080602 60.0
205.085226 49.0
206.100771 100.0
207.035646 157.0
208.11251 37.0
211.031034 38.0
212.026939 97.0
214.063028 34.0
215.083282 56.0
216.023897 27.0
218.057346 33.0
218.073256 66.0
218.128236 59.0
219.071121 26.0
220.077065 123.0
221.09116 70.0
224.069654 38.0
225.041448 35.0
226.006503 48.0
226.022713 83.0
226.991328 35.0
227.022338 118.0
228.022702 192.0
229.088996 23.0
230.092401 34.0
231.078656 34.0
231.090556 82.0
232.07295 48.0
233.099335 25.0
234.090489 312.0
236.024929 29.0
238.041378 38.0
239.044493 51.0
240.025437 75.0
241.043362 62.0
242.043636 105.0
243.030701 37.0
244.019776 172.0
245.0492 33.0
245.09214 78.0
246.042365 34.0
246.096144 41.0
247.063719 45.0
248.090274 23.0
248.989089 43.0
252.024922 48.0
253.022757 54.0
254.036621 50.0
255.036876 186.0
256.035961 63.0
256.0485 56.0
257.062105 62.0
258.06201 24.0
258.088769 20.0
260.111838 32.0
262.028628 25.0
264.024107 37.0
265.021472 51.0
265.042202 126.0
266.038316 71.0
267.037881 93.0
268.052155 72.0
269.05069 57.0
270.057495 27.0
271.029099 127.0
272.046064 56.0
273.094098 22.0
274.095463 63.0
278.042491 33.0
279.036536 50.0
280.022521 51.0
280.050391 52.0
281.049645 184.0
282.04079 79.0
283.030414 78.0
283.046894 66.0
284.049819 21.0
286.080898 24.0
290.024577 32.0
291.038121 53.0
291.088231 80.0
293.04534 83.0
294.045645 28.0
295.030839 137.0
296.053074 32.0
297.046689 39.0
298.052123 45.0
299.062648 134.0
300.044322 72.0
301.063307 35.0
303.039946 31.0
304.041771 20.0
305.053825 42.0
306.05556 42.0
307.029764 41.0
308.036469 47.0
308.062259 43.0
309.048244 104.0
310.035818 38.0
310.046168 69.0
311.054343 65.0
312.057227 59.0
313.065192 51.0
314.031377 23.0
315.079031 28.0
318.049025 23.0
319.029849 219.0
320.034974 60.0
321.045219 85.0
322.055283 63.0
323.026408 83.0
324.051922 47.0
325.056097 49.0
326.047691 149.0
327.060266 406.0
328.058431 44.0
330.05936 31.0
331.063874 31.0
332.077079 44.0
334.070478 22.0
336.042937 37.0
336.057317 59.0
337.040342 47.0
338.075216 26.0
340.050426 30.0
341.04832 45.0
341.07001 46.0
343.053919 41.0
344.081654 32.0
347.022558 111.0
347.060888 44.0
348.045252 53.0
349.038327 104.0
349.149956 58.0
350.071311 99.0
351.054396 33.0
351.072766 41.0
352.066481 43.0
352.086681 71.0
353.091035 55.0
354.05624 76.0
355.056024 50.0
357.067154 52.0
358.048928 30.0
360.049927 45.0
362.052807 21.0
362.075176 58.0
363.097391 43.0
364.049996 76.0
364.087376 46.0
365.05813 69.0
366.073325 92.0
367.101149 41.0
368.077804 176.0
369.085858 156.0
370.061373 45.0
373.058087 35.0
374.069161 26.0
375.081576 37.0
376.057401 69.0
376.083981 74.0
377.053495 25.0
378.06423 67.0
378.07946 103.0
379.080124 24.0
380.070689 31.0
382.069028 35.0
382.090088 54.0
383.061543 50.0
384.128317 45.0
386.083376 19.0
387.131201 80.0
389.06301 34.0
390.076155 31.0
392.059884 124.0
392.081214 118.0
393.082769 64.0
394.070033 105.0
395.054618 34.0
395.095508 37.0
396.077502 146.0
397.066567 29.0
398.101811 53.0
400.092091 39.0
402.07359 75.0
403.072084 78.0
404.079679 103.0
406.061148 59.0
406.094688 24.0
409.071142 51.0
409.081062 39.0
411.086661 79.0
413.09913 69.0
414.089275 59.0
416.047144 50.0
416.087094 28.0
417.078819 36.0
419.065808 18.0
419.095868 42.0
420.077122 302.0
421.059507 79.0
421.085637 146.0
422.059142 50.0
422.097381 32.0
423.086146 179.0
424.074051 150.0
425.115645 37.0
430.056198 74.0
431.074593 73.0
432.057528 40.0
433.059932 27.0
433.074212 68.0
433.114992 38.0
434.075737 95.0
435.119311 50.0
437.10984 131.0
438.097565 235.0
441.098339 174.0
443.098358 32.0
445.082237 73.0
446.093402 33.0
447.089156 105.0
448.073611 299.0
449.061185 53.0
449.092315 69.0
449.106845 124.0
451.081225 51.0
452.097119 34.0
453.145423 42.0
461.07275 118.0
462.104055 42.0
464.098314 17.0
464.115214 277.0
465.105509 270.0
466.092653 118.0
466.120153 223.0
466.132843 241.0
467.085078 54.0
467.127408 12.0
469.083697 66.0
469.098527 89.0
471.078066 53.0
473.085195 51.0
473.125665 33.0
474.12127 58.0
475.083755 73.0
476.068609 60.0
478.099178 106.0
481.111252 34.0
482.123816 623.0
485.114 35.0
488.104744 26.0
489.092159 98.0
490.102253 169.0
491.126388 53.0
492.110332 292.0
493.101787 56.0
494.118162 22.0
498.1024 29.0
499.082375 47.0
500.122439 34.0
501.102164 93.0
502.120198 29.0
506.121057 159.0
507.113271 25.0
508.146226 47.0
510.115695 480.0
516.104802 168.0
517.097837 734.0
518.091792 142.0
518.118582 203.0
519.106866 43.0
522.10422 26.0
527.073983 73.0
528.124817 38.0
529.136102 30.0
530.128047 89.0
532.089946 21.0
534.116545 886.0
534.123325 1269.0
535.12673 114.0
536.137894 41.0
538.129033 40.0
540.114683 33.0
540.223992 64.0
542.122302 117.0
543.105816 45.0
544.101661 492.0
545.089266 82.0
545.100676 89.0
546.1235 97.0
546.14181 34.0
547.142724 43.0
549.126594 45.0
550.143988 38.0
554.098557 31.0
556.127296 32.0
558.129725 38.0
560.138014 46.0
561.130739 147.0
562.119753 837.0
563.146788 79.0
565.103557 26.0
567.122046 38.0
568.148951 39.0
568.22604 72.0
570.12844 46.0
570.15883 44.0
571.146374 20.0
573.131044 92.0
574.111808 32.0
575.149713 55.0
578.149027 40.0
582.150775 26.0
583.14863 41.0
585.151669 33.0
586.133173 89.0
587.151048 60.0
587.179488 105.0
588.160322 58.0
591.133756 44.0
591.152796 54.0
594.11231 27.0
597.119924 21.0
597.139034 66.0
599.117963 47.0
601.141022 54.0
602.147857 33.0
603.138631 32.0
604.156696 32.0
606.229255 22.0
609.252798 28.0
611.152388 101.0
612.143283 44.0
613.168977 42.0
614.146932 52.0
615.142656 102.0
615.162126 93.0
623.149943 68.0
626.107507 35.0
627.139911 58.0
628.128976 40.0
628.160836 60.0
629.16547 72.0
630.153625 43.0
631.15734 47.0
632.147084 32.0
632.164294 60.0
636.131073 39.0
638.156262 25.0
639.146496 38.0
640.130071 56.0
641.154115 63.0
643.157455 23.0
646.171968 26.0
646.181978 95.0
649.121232 45.0
654.172655 51.0
655.1602 28.0
656.163554 244.0
657.160129 61.0
658.162503 36.0
659.170678 90.0
660.151933 38.0
662.169562 30.0
664.142331 30.0
665.177785 32.0
666.13817 31.0
666.1483 72.0
667.142315 52.0
668.126989 31.0
670.156768 46.0
673.180492 81.0
673.203382 149.0
674.164497 158.0
675.174621 19.0
676.170286 25.0
679.17435 45.0
681.151759 36.0
681.167139 87.0
683.173048 67.0
684.146373 75.0
684.164313 127.0
685.171697 52.0
686.195192 27.0
688.169971 37.0
691.190285 243.0
691.203154 1611.0
693.156704 80.0
694.144859 53.0
695.167313 23.0
697.149782 46.0
697.191162 52.0
698.174437 118.0
698.189937 97.0
699.173941 50.0
699.192071 31.0
700.184496 45.0
701.1854 319.0
702.189675 50.0
706.151324 46.0
707.182568 36.0
708.165043 67.0
709.163817 56.0
710.155512 52.0
711.163496 164.0
712.159161 43.0
715.181855 27.0
715.200165 71.0
717.208324 46.0
721.175282 23.0
723.173381 50.0
724.190586 60.0
725.184791 72.0
725.19272 165.0
726.155915 90.0
727.19375 70.0
727.21224 41.0
729.181649 421.0
729.186899 871.0
733.176197 48.0
736.173981 23.0
737.168366 92.0
737.192285 40.0
739.193805 43.0
742.206488 56.0
743.202323 970.0
744.212147 37.0
749.196501 46.0
751.17128 74.0
751.21425 57.0
754.205563 53.0
755.187858 40.0
755.214778 73.0
756.235402 105.0
758.208652 25.0
760.160121 34.0
761.205775 38.0
763.209785 33.0
764.200629 53.0
766.165219 52.0
767.206833 148.0
769.213352 28.0
772.223896 49.0
777.156309 35.0
777.189079 91.0
779.200358 41.0
779.238698 47.0
780.217933 59.0
781.214267 39.0
782.203032 246.0
783.195156 151.0
786.20271 48.0
789.177544 35.0
790.209888 44.0
792.182778 31.0
794.205107 57.0
795.215841 273.0
796.252146 370.0
797.25312 98.0
798.196595 32.0
799.2265 42.0
800.226554 637.0
804.230383 27.0
805.211327 67.0
806.212362 165.0
807.177817 31.0
808.191231 39.0
808.213511 104.0
809.213626 39.0
810.21155 54.0
812.265129 35.0
813.250964 76.0
814.268168 76.0
816.195278 28.0
821.198611 48.0
822.240415 68.0
823.22387 276.0
824.213484 81.0
824.233204 270.0
826.234043 23.0
832.214421 15.0
833.209466 135.0
834.20226 203.0
835.187185 62.0
838.244658 53.0
840.251118 631.0
841.222552 69.0
841.239582 187.0
844.239806 42.0
847.23399 52.0
848.249364 54.0
850.230553 38.0
851.204918 85.0
851.224938 237.0
852.214133 1680.0
856.46899 23.0
858.25029 352.0
858.25889 631.0
860.205779 32.0
861.180024 27.0
861.217434 25.0
864.227128 33.0
866.255737 39.0
868.254936 99.0
874.231714 40.0
874.243303 72.0
876.469181 13.0
878.216002 65.0
878.236322 95.0
879.214897 136.0
882.26169 46.0
891.249381 43.0
891.269821 108.0
892.244006 280.0
893.233311 63.0
896.245624 239.0
897.724316 13.0
899.283518 35.0
905.248086 26.0
907.300625 13.0
909.266854 46.0
910.256718 817.0
917.239231 43.0
919.26967 21.0
921.225109 51.0
931.287305 68.0
934.264219 24.0
938.316877 13.0
944.261724 83.0
945.243349 33.0
946.279663 54.0
956.24414 15.0
957.280454 38.0
961.318882 76.0
962.257597 150.0
970.305893 25.0
973.271147 35.0
974.264672 138.0
975.270897 24.0
983.268903 37.0
988.291516 60.0
990.272705 49.0
991.29333 85.0
997.258077 40.0
997.295187 57.0

