>compound 
>formula C20H30O4
>parentmass 357.20363044518
>ionization [M + Na]+
>instrumentation Unknown (LCMS)
>source file:/Users/fanzhoukong/Documents/GitHub/Libgen/data/EAD_PFP/0_unknown_/spectrum.ms
>quality UNKNOWN

>ms2peaks
50.016044 178.0
51.022156 299.0
52.028408 57.0
53.038051 110.0
54.032923 30.0
55.052296 240.0
56.048188 38.0
57.069291 30.0
58.065263 100.0
60.983941 70.0
62.014133 59.0
63.024176 186.0
65.038721 569.0
66.045133 46.0
67.052856 375.0
68.049628 194.0
69.070031 147.0
71.068356 84.0
72.082778 62.0
73.04578 27.0
75.023175 56.0
76.030318 58.0
77.03816 1050.0
78.039653 123.0
79.055455 455.0
81.06707 63.0
83.086095 152.0
84.082908 452.0
85.06308 26.0
87.021275 18.0
89.04241 121.0
90.040772 35.0
91.056845 1248.0
92.056997 218.0
93.06545 211.0
94.066092 42.0
95.085465 282.0
97.06442 35.0
98.096952 24.0
99.992197 22.0
101.04113 34.0
102.045052 159.0
103.054945 128.0
104.056817 48.0
105.06955 655.0
107.067165 49.0
107.084405 200.0
108.081177 35.0
109.10099 139.0
111.077534 24.0
112.999949 37.0
113.031199 20.0
115.054424 739.0
116.060107 204.0
117.070159 346.0
118.062242 63.0
119.082014 109.0
120.082567 59.0
121.066819 33.0
121.096999 170.0
122.102712 46.0
123.082154 84.0
123.119104 45.0
126.046141 68.0
127.052284 232.0
128.057986 256.0
128.065736 781.0
129.068769 417.0
130.073471 137.0
131.076464 89.0
131.086544 187.0
132.055166 50.0
133.104179 86.0
135.113274 118.0
136.112606 18.0
139.058784 46.0
141.067959 202.0
142.078521 147.0
143.080974 118.0
145.098839 103.0
145.967441 29.0
146.087011 32.0
147.079723 51.0
147.120124 180.0
148.113966 19.0
149.094388 43.0
149.119508 67.0
149.133858 76.0
150.048051 81.0
151.055313 115.0
151.060133 165.0
152.061116 426.0
153.071478 449.0
154.070581 141.0
155.083923 453.0
156.078556 22.0
156.090786 81.0
157.099688 379.0
158.072421 100.0
158.084741 97.0
159.092623 276.0
159.113643 260.0
160.112406 59.0
161.101868 72.0
161.123008 97.0
161.129228 215.0
163.057423 39.0
163.114943 56.0
164.060935 35.0
165.071308 587.0
166.06585 33.0
166.07595 129.0
167.083643 360.0
168.058825 39.0
168.084225 50.0
168.094385 71.0
169.090338 132.0
169.101788 151.0
170.06879 17.0
170.08541 42.0
170.09818 84.0
170.1148 37.0
171.088503 127.0
171.116693 171.0
172.084285 49.0
172.106115 40.0
172.118985 32.0
173.099698 238.0
173.113868 266.0
175.087643 85.0
175.149873 63.0
176.059875 50.0
177.079118 17.0
177.124748 71.0
177.149508 53.0
178.07908 275.0
179.085793 207.0
180.092715 81.0
181.098477 151.0
181.114308 95.0
182.08196 101.0
182.10443 71.0
183.081352 33.0
183.113162 208.0
184.087455 31.0
184.098095 68.0
185.098997 134.0
185.113637 184.0
186.11998 33.0
187.123652 78.0
187.131702 162.0
187.147782 133.0
188.116615 33.0
189.078527 89.0
189.087957 124.0
189.163397 33.0
190.07394 50.0
191.057082 43.0
191.082822 108.0
192.092985 74.0
192.178545 28.0
193.085417 36.0
193.101747 155.0
194.08312 62.0
194.11041 62.0
195.097082 132.0
195.120352 145.0
196.087625 64.0
197.095807 152.0
197.128807 81.0
198.10243 167.0
199.114382 166.0
200.102584 41.0
201.129357 108.0
202.076579 62.0
203.102812 55.0
203.140492 23.0
204.081244 29.0
205.105547 40.0
206.084569 43.0
207.043382 42.0
207.118102 70.0
208.087794 31.0
208.125934 47.0
209.092327 38.0
209.116407 203.0
210.116309 63.0
211.111482 309.0
212.117574 48.0
213.130347 459.0
214.152689 22.0
215.105632 38.0
215.176052 43.0
217.095826 29.0
217.160777 41.0
219.111121 43.0
221.119716 77.0
221.148846 121.0
222.102629 17.0
222.142039 55.0
223.122811 176.0
224.120434 60.0
225.139386 153.0
226.135599 40.0
226.159169 46.0
227.139911 222.0
228.116864 34.0
229.124086 93.0
229.146326 58.0
230.246489 38.0
231.118381 70.0
232.126224 28.0
233.143746 40.0
234.105039 19.0
235.146401 51.0
236.125353 57.0
237.124436 139.0
237.156116 75.0
239.150141 271.0
240.188994 84.0
240.226934 114.0
241.122086 41.0
241.179896 91.0
242.192658 25.0
243.173921 33.0
245.131676 56.0
246.125028 16.0
247.171201 36.0
247.240501 93.0
249.123306 70.0
250.138648 30.0
251.168481 68.0
251.177781 159.0
252.191083 22.0
253.156516 132.0
253.181466 65.0
254.175348 67.0
255.177461 242.0
256.209763 51.0
257.207996 43.0
257.231556 65.0
258.219198 65.0
261.172885 67.0
261.187135 28.0
263.14127 26.0
264.146523 92.0
265.016545 35.0
265.251045 99.0
267.17384 64.0
269.203265 492.0
269.225755 533.0
270.220028 66.0
271.2597 29.0
272.241543 92.0
273.241365 81.0
275.19776 39.0
275.20914 26.0
279.17729 365.0
280.238943 36.0
281.054585 80.0
282.220177 77.0
283.023859 30.0
284.238122 52.0
285.042994 253.0
286.258267 84.0
289.137825 28.0
289.219465 38.0
293.231645 22.0
295.22958 20.0
296.233642 419.0
297.188714 1590.0
298.255307 143.0
299.25092 60.0
303.30455 23.0
309.163934 23.0
310.253507 78.0
311.170409 29.0
311.253389 75.0
312.275642 2913.0
313.261424 38.0
313.278754 64.0
314.285227 91.0
315.199379 124.0
321.245754 20.0
322.287776 30.0
325.266764 38.0
327.278669 63.0
339.050948 33.0
339.265638 130.0
339.283698 101.0
341.296793 668.0
355.309678 129.0
356.327871 24.0
357.314173 2011.0
357.328973 7805.0

