>compound 
>formula C31H40O2
>parentmass 467.29205152834
>ionization [M + Na]+
>instrumentation Unknown (LCMS)
>source file:/Users/fanzhoukong/Documents/GitHub/Libgen/data/EAD_PFP/0_unknown_/spectrum.ms
>quality UNKNOWN

>ms2peaks
115.05078 155.0
115.05499 884.0
117.065434 31.0
117.069674 304.0
119.087949 770.0
121.099744 356.0
122.103306 22.0
123.117529 199.0
126.048955 167.0
128.05973 1010.0
129.068292 303.0
130.067395 149.0
131.083827 285.0
145.09834 107.0
147.117255 820.0
149.092689 66.0
149.130969 314.0
151.063244 137.0
151.083704 209.0
152.061846 688.0
153.069769 577.0
154.076171 277.0
155.085863 855.0
157.097958 1562.0
158.10641 121.0
159.115613 1884.0
161.133707 1149.0
163.058162 118.0
163.148252 572.0
165.072087 639.0
166.067869 137.0
167.086951 485.0
168.091344 235.0
169.098766 753.0
170.105338 269.0
171.114931 1274.0
172.124913 223.0
173.132706 1312.0
174.140878 99.0
175.14938 1399.0
176.119163 63.0
177.128155 232.0
177.162065 201.0
178.077267 260.0
179.1456 224.0
180.090882 99.0
181.101954 262.0
182.111867 118.0
183.111319 341.0
184.122851 220.0
185.133134 1522.0
186.146196 169.0
187.145938 1146.0
189.072623 143.0
189.165603 295.0
191.139188 245.0
192.09384 66.0
193.155702 218.0
195.118477 151.0
196.121429 122.0
197.131052 443.0
198.139164 104.0
199.148436 1800.0
200.157509 128.0
201.163581 1700.0
203.146966 203.0
203.179086 91.0
205.15274 135.0
206.106553 58.0
207.116185 161.0
207.173985 107.0
209.13006 174.0
211.147984 512.0
212.148437 67.0
213.164139 1483.0
214.167941 122.0
215.169774 260.0
215.181284 575.0
217.131388 257.0
219.138153 97.0
221.129388 68.0
223.093042 123.0
223.151582 168.0
225.163847 394.0
226.17193 141.0
227.179272 812.0
229.132476 127.0
229.188827 213.0
231.172971 181.0
233.116306 48.0
235.168421 77.0
237.164645 179.0
239.17386 139.0
240.185442 109.0
241.194585 844.0
243.202419 300.0
245.148024 200.0
246.133736 95.0
249.183083 116.0
251.175718 126.0
253.191853 361.0
254.206075 137.0
255.208237 288.0
257.215322 151.0
259.206627 321.0
261.218261 73.0
265.196261 84.0
267.213356 406.0
269.23167 7090.0
271.218825 138.0
273.2214 166.0
275.200464 131.0
276.202457 51.0
277.217679 212.0
279.209484 162.0
281.047498 162.0
281.229808 96.0
285.217828 276.0
286.22958 65.0
287.236472 3669.0
289.212247 50.0
291.189792 157.0
293.221046 117.0
295.160051 160.0
297.221946 80.0
299.23681 134.0
305.238374 796.0
305.248634 1215.0
309.227124 248.0
311.233818 222.0
315.226658 125.0
317.242222 229.0
319.232707 23.0
323.242907 181.0
325.183191 126.0
327.232056 404.0
329.251801 126.0
333.22053 23.0
335.237135 81.0
337.209429 48.0
339.234434 96.0
341.251009 225.0
345.245678 350.0
347.239883 251.0
353.249507 407.0
357.241396 77.0
359.243881 116.0
363.2582 133.0
365.245595 181.0
367.257229 65.0
371.261209 344.0
375.248918 62.0
377.236503 86.0
377.244103 227.0
383.257577 358.0
385.268142 84.0
389.262531 126.0
395.259645 627.0
401.269239 346.0
403.289084 170.0
413.257157 487.0
413.269087 1679.0
415.247002 52.0
421.293486 158.0
431.282929 2414.0
448.273719 200.0
449.284371 570.0
449.286441 3832.0
466.290541 143.0
467.304343 2242.0

