>compound 
>formula C14H20O4
>parentmass 253.14344012288
>ionization [M + H]+
>instrumentation Unknown (LCMS)
>source file:/Users/fanzhoukong/Documents/GitHub/Libgen/data/EAD_PFP/0_unknown_/spectrum.ms
>quality UNKNOWN

>ms2peaks
50.013953 334.0
51.024256 975.0
52.031228 160.0
53.038051 507.0
54.033643 23.0
54.046603 42.0
55.041386 2300.0
55.053016 612.0
55.614127 24.0
56.051118 24.0
57.044861 345.0
57.050781 627.0
57.070021 133.0
59.049516 302.0
60.986241 45.0
62.014133 23.0
63.022626 203.0
64.032188 18.0
65.038711 1991.0
66.045133 199.0
67.054456 1466.0
68.024568 34.0
69.02932 55.0
69.063511 213.0
69.069211 727.0
70.067673 17.0
71.049355 207.0
73.02903 28.0
74.017683 25.0
75.024015 51.0
76.031168 59.0
77.04245 2176.0
78.046573 387.0
79.056325 1454.0
80.056788 81.0
81.07059 1831.0
82.036643 26.0
82.043743 38.0
83.063765 422.0
83.066445 669.0
83.085195 545.0
84.017348 24.0
84.082008 23.0
85.02965 1208.0
86.013492 17.0
87.044115 17.0
88.033987 26.0
89.03779 204.0
90.049132 61.0
91.055905 3440.0
92.057927 193.0
93.06922 1791.0
94.044232 209.0
95.049155 252.0
95.067305 2443.0
96.056547 37.0
97.06538 226.0
98.018372 19.0
98.982835 71.0
99.042295 48.0
99.076425 17.0
100.041177 26.0
101.02241 60.0
102.050992 65.0
103.054935 431.0
104.056807 71.0
105.07156 2427.0
106.070042 63.0
107.064125 1799.0
107.077305 227.0
108.072007 47.0
109.067219 959.0
110.039252 57.0
111.046554 921.0
112.075047 23.0
113.015569 50.0
113.054109 38.0
113.967342 31.0
114.043702 18.0
115.056524 1576.0
116.059047 136.0
117.069089 1265.0
118.072872 55.0
118.081392 41.0
119.047804 36.0
119.074534 575.0
119.076664 1233.0
119.087354 1585.0
120.072897 27.0
120.078267 23.0
121.066809 1428.0
122.038852 25.0
122.065912 28.0
122.073482 24.0
123.047374 822.0
123.065844 316.0
123.081064 113.0
124.051316 27.0
124.066587 42.0
125.062619 167.0
125.077959 346.0
125.083439 369.0
125.095489 368.0
126.046141 55.0
127.054484 250.0
128.063526 1003.0
129.067649 542.0
129.070989 2064.0
130.073471 68.0
130.083521 34.0
131.073084 89.0
131.085414 1016.0
132.063016 48.0
133.071389 1518.0
133.080429 2535.0
134.076771 30.0
135.081384 1161.0
136.052046 18.0
137.059419 921.0
137.067439 963.0
138.068221 17.0
139.065694 56.0
139.743485 17.0
140.108506 79.0
141.067939 155.0
142.078521 137.0
143.089174 629.0
144.079896 49.0
145.095299 125.0
145.102379 708.0
147.084483 4693.0
147.092783 1542.0
147.116553 219.0
148.047186 26.0
149.064478 172.0
149.076448 465.0
149.084808 561.0
149.095558 341.0
150.034831 24.0
150.067241 29.0
151.045673 321.0
151.055303 601.0
151.064943 527.0
151.073363 319.0
151.090223 472.0
151.114303 97.0
152.050236 70.0
152.063526 215.0
153.054498 215.0
153.059348 420.0
154.052331 33.0
154.074211 55.0
155.085123 416.0
156.084656 98.0
156.092006 345.0
157.100908 2304.0
158.074861 78.0
159.082743 293.0
159.098803 132.0
160.088846 65.0
161.086938 212.0
161.099358 406.0
161.110558 469.0
161.132948 1131.0
163.077413 344.0
163.088673 719.0
164.045875 28.0
164.063435 44.0
164.075995 21.0
165.058718 1039.0
165.126688 37.0
166.08225 167.0
167.065913 76.0
167.072243 138.0
168.105805 1938.0
169.071218 41.0
169.101788 44.0
170.11478 23.0
171.123103 1952.0
173.097118 442.0
174.08191 18.0
175.110983 2202.0
176.126165 25.0
176.554156 16.0
177.071298 16.0
177.090838 228.0
178.06861 26.0
178.08953 24.0
179.075292 1111.0
181.094527 124.0
181.103758 649.0
184.087445 78.0
187.112932 43.0
188.068235 20.0
189.133747 2827.0
190.03207 20.0
191.105832 123.0
191.127492 189.0
191.143752 114.0
193.107197 59.0
193.122157 2279.0
194.09949 17.0
195.076562 23.0
197.102667 28.0
197.117787 35.0
199.112992 1148.0
202.076579 14.0
203.122342 15.0
204.068644 16.0
206.130969 34.0
207.120902 38.0
207.143462 1445.0
209.092307 19.0
215.084071 19.0
217.123247 1872.0
218.123279 25.0
219.099501 15.0
223.125741 22.0
234.120009 21.0
235.137371 2196.0
239.084981 23.0
250.96822 17.0
253.148726 130.0
253.162746 91.0

