>compound 
>formula C14H6O8
>parentmass 303.01354814994005
>ionization [M + H]+
>instrumentation Unknown (LCMS)
>source file:/Users/fanzhoukong/Documents/GitHub/Libgen/data/EAD_PFP/0_unknown_/spectrum.ms
>quality UNKNOWN

>ms2peaks
50.017675 144.0
51.023803 572.0
52.032172 186.0
53.004751 13.0
53.02829 20.0
53.03899 52.0
55.019068 14.0
55.053958 86.0
56.060116 12.0
57.034695 15.0
57.070215 38.0
57.934874 7.0
60.99634 16.0
61.00781 50.0
62.015818 388.0
63.025087 1307.0
64.030745 18.0
65.038834 897.0
66.043643 77.0
67.054561 99.0
68.995219 180.0
71.048596 7.0
73.007313 11.0
74.016882 212.0
75.02575 424.0
76.032049 61.0
77.039887 1310.0
78.044846 35.0
78.047446 652.0
79.054575 495.0
80.050633 26.0
81.068802 80.0
82.073001 9.0
83.052119 24.0
83.086939 11.0
83.999338 6.0
85.006107 22.0
86.015245 96.0
87.023934 90.0
88.032072 311.0
89.041401 2030.0
90.04718 100.0
91.055798 1395.0
92.057817 139.0
93.053985 19.0
93.068155 29.0
94.069764 7.0
95.049023 20.0
95.070033 18.0
95.086273 49.0
95.956571 12.0
97.00926 17.0
98.015299 194.0
99.023607 280.0
100.017486 6.0
100.033156 26.0
101.038965 380.0
102.045853 38.0
103.015962 41.0
103.031872 33.0
103.052752 19.0
104.0576 12.0
105.037199 143.0
105.070339 7.0
106.043588 84.0
107.048686 108.0
109.007644 13.0
109.101763 43.0
110.016392 17.0
111.020491 15.0
111.031841 14.0
111.066941 13.0
113.001758 22.0
113.040288 6.0
114.037137 8.0
115.055175 200.0
116.028144 232.0
116.060854 7.0
117.034873 932.0
118.049141 57.0
118.067241 12.0
119.05283 59.0
119.08062 24.0
120.021048 19.0
120.065058 8.0
120.081158 8.0
121.030907 57.0
121.052467 10.0
122.026606 5.0
122.035266 11.0
123.043764 10.0
123.080714 7.0
126.05017 15.0
126.898459 5.0
127.020979 162.0
127.054109 21.0
128.063137 130.0
129.036096 320.0
129.056126 6.0
130.067485 53.0
131.013253 40.0
131.050253 14.0
132.020972 22.0
133.035941 49.0
133.0947 6.0
134.040039 209.0
135.046778 132.0
137.060115 41.0
139.052532 9.0
139.060612 15.0
140.051211 24.0
141.068619 29.0
142.079178 24.0
143.076957 30.0
144.022955 79.0
145.031064 1051.0
145.971653 28.0
146.035563 49.0
147.043541 364.0
147.96324 17.0
149.025679 17.0
149.098608 6.0
149.133308 12.0
150.045097 11.0
151.054756 40.0
152.064164 81.0
153.024843 11.0
153.049073 11.0
153.068473 34.0
154.067572 25.0
155.01502 89.0
155.0455 12.0
156.021649 8.0
156.069379 15.0
156.081619 11.0
157.027878 500.0
158.038556 7.0
158.097666 28.0
158.119836 8.0
159.095715 13.0
161.022912 76.0
161.097492 12.0
162.032631 976.0
163.040499 1055.0
164.048988 11.0
164.057778 17.0
165.058067 6.0
165.071907 56.0
165.093306 23.0
166.066455 20.0
166.076555 15.0
167.066514 13.0
167.072844 23.0
168.072112 21.0
169.073091 9.0
169.084551 31.0
170.08726 11.0
170.0962 10.0
171.008368 21.0
171.082678 7.0
172.019327 112.0
173.025516 1508.0
174.029504 60.0
175.041553 295.0
175.149143 20.0
176.040941 6.0
176.060441 17.0
177.02101 69.0
177.05622 5.0
178.082249 19.0
178.952647 6.0
179.070597 16.0
179.086347 11.0
179.105997 10.0
180.066966 7.0
180.081416 34.0
181.066085 18.0
181.085854 8.0
182.097043 7.0
183.007672 467.0
184.02021 15.0
185.026239 478.0
186.032308 7.0
189.017094 187.0
189.163923 27.0
190.016382 12.0
190.028552 698.0
191.035931 537.0
192.075849 8.0
192.974318 6.0
192.982478 19.0
193.111778 7.0
193.125388 6.0
193.982647 11.0
194.095907 12.0
195.092105 7.0
197.104562 14.0
197.119682 8.0
199.00431 12.0
199.13008 9.0
199.14804 15.0
200.011628 89.0
201.018707 1930.0
202.026926 95.0
203.034874 339.0
204.146113 5.0
205.014822 37.0
205.139691 5.0
206.07378 5.0
207.033969 54.0
208.112267 10.0
209.034706 10.0
209.099856 5.0
211.002353 88.0
212.012452 10.0
213.022111 411.0
215.070158 7.0
215.081648 10.0
216.003547 5.0
216.076976 6.0
217.012555 109.0
218.022454 608.0
219.031802 506.0
221.07788 4.0
222.120558 6.0
225.039854 6.0
225.095704 6.0
226.995641 5.0
228.00779 219.0
229.014759 1375.0
230.023957 40.0
231.029426 1203.0
233.006533 15.0
238.997525 29.0
239.080815 6.0
240.008724 6.0
241.015962 862.0
242.987929 10.0
243.058189 6.0
244.001418 6.0
245.012407 99.0
246.017795 1050.0
247.023714 2283.0
248.992231 14.0
249.183941 7.0
249.191671 6.0
250.968558 7.0
253.102296 5.0
254.993153 6.0
256.003132 24.0
257.01353 4207.0
258.018049 26.0
259.027687 1036.0
261.006965 39.0
265.010439 6.0
267.028416 5.0
267.198146 14.0
268.036285 6.0
271.111541 6.0
273.006858 320.0
274.012957 572.0
275.024155 4579.0
281.053177 28.0
282.057506 8.0
283.997263 40.0
284.015423 6.0
285.010142 3761.0
286.0149 147.0
301.00249 105.0
301.01778 44.0
301.997568 64.0
302.011178 5554.0
303.018167 8465.0

