>compound 
>formula C10H12N4O6
>parentmass 285.082891845703
>ionization [M + H]+
>instrumentation Unknown (LCMS)
>source file:/Users/fanzhoukong/Documents/GitHub/Libgen/data/NIST_MONA/0_unknown_/spectrum.ms
>quality UNKNOWN

>ms2peaks
29.038 1.04
41.0367 1.46
43.0172 13.48
45.0328 8.65
47.0131 0.63
55.0177 28.76
55.0486 0.83
57.0329 39.48
57.0652 1.13
57.0765 0.64
59.0137 1.56
59.0486 5.7
61.0284 16.25
69.0336 20.26
70.0343 1.27
71.0126 8.34
73.0275 12.68
75.0428 1.64
77.0237 2.35
81.0058 1.91
82.0401 2.35
83.0262 0.62
85.0274 12.81
87.0449 2.9
89.0239 1.31
97.0295 5.71
103.0379 3.81
108.0212 1.6
110.0341 14.64
110.0831 1.12
115.0383 4.91
133.0496 6.24
135.03 3.3
136.0146 65.6
136.0627 1.76
136.0813 1.04
137.0184 1.69
153.041 100.0
153.1108 1.33
153.3421 0.61
153.4152 0.62
153.4635 0.68
153.7859 0.67
220.929 1.52
252.9666 0.81

