>compound 
>formula C21H20O13
>parentmass 481.0976716990101
>ionization [M + H]+
>instrumentation Unknown (LCMS)
>source file:/Users/fanzhoukong/Documents/GitHub/Libgen/data/EAD_PFP/0_unknown_/spectrum.ms
>quality UNKNOWN

>ms2peaks
50.015127 187.0
51.022626 469.0
52.021104 12.0
52.030284 58.0
53.002143 32.0
53.039953 149.0
54.037712 10.0
55.019341 112.0
55.053491 18.0
55.93431 18.0
56.02593 27.0
56.052329 11.0
57.034248 30.0
57.933687 15.0
59.929485 6.0
60.984423 31.0
62.014612 44.0
63.022321 238.0
64.03032 40.0
65.037618 806.0
66.044817 196.0
67.054136 169.0
68.026675 30.0
68.050105 11.0
68.997253 347.0
70.066522 10.0
71.012691 57.0
72.937459 7.0
73.027838 9.0
74.013117 47.0
75.023656 88.0
76.029955 119.0
77.042084 725.0
78.043602 79.0
79.054201 445.0
80.05289 53.0
81.036689 108.0
81.069319 16.0
82.077077 17.0
83.084796 14.0
84.020535 55.0
85.028344 147.0
86.015802 17.0
87.025421 17.0
88.03081 40.0
89.040139 238.0
90.046837 46.0
91.054536 1175.0
92.055615 135.0
92.999804 13.0
93.048934 27.0
93.065944 27.0
94.042842 51.0
95.012421 119.0
95.95147 6.0
96.01961 13.0
97.025349 66.0
99.042806 6.0
100.030905 9.0
101.038674 54.0
102.047543 62.0
103.052471 189.0
104.05132 13.0
104.05832 28.0
105.071069 106.0
106.067528 42.0
107.012946 7.0
107.050446 56.0
109.028864 79.0
110.034633 8.0
110.039763 14.0
111.004752 30.0
111.007852 43.0
112.01646 44.0
113.000469 11.0
113.022339 9.0
113.038999 33.0
114.046318 52.0
115.053896 506.0
116.057455 60.0
117.051604 49.0
117.063264 51.0
118.044663 25.0
118.056373 25.0
118.064883 32.0
119.048332 37.0
119.064372 15.0
119.078262 14.0
119.086822 15.0
120.02084 6.0
120.08202 12.0
121.028539 211.0
122.036138 61.0
123.007697 134.0
123.026177 46.0
123.044647 38.0
124.016935 56.0
125.024814 21.0
125.039054 19.0
126.047773 39.0
127.043982 23.0
127.052812 45.0
128.06407 215.0
129.035909 37.0
129.063739 30.0
129.072659 26.0
130.052768 9.0
130.067318 60.0
130.994027 7.0
131.056817 96.0
132.017426 12.0
132.053445 20.0
133.058364 11.0
134.036483 13.0
135.044362 34.0
136.014881 8.0
137.024409 227.0
138.035378 14.0
139.002717 38.0
139.029297 10.0
140.009346 22.0
140.051086 6.0
141.055684 18.0
141.069654 42.0
142.024173 18.0
142.039363 36.0
142.063883 27.0
143.069812 10.0
144.079271 12.0
145.059249 37.0
145.075779 18.0
145.969178 19.0
146.033098 26.0
147.044637 190.0
147.965516 24.0
148.052516 9.0
149.025554 52.0
150.033003 63.0
151.004102 25.0
151.017342 18.0
151.039012 24.0
151.048642 26.0
152.008521 66.0
152.025451 19.0
152.038721 32.0
153.0175 83.0
153.051429 19.0
153.067179 11.0
154.066278 32.0
155.051547 13.0
155.062517 48.0
155.080817 17.0
156.077886 29.0
157.027825 30.0
157.065865 10.0
157.090424 10.0
158.081603 12.0
158.095153 30.0
158.102543 26.0
159.042542 59.0
159.066012 17.0
160.052251 30.0
161.02287 26.0
161.06389 13.0
162.031338 26.0
163.040467 219.0
164.047706 7.0
164.060256 14.0
165.070625 72.0
166.068943 12.0
166.076533 16.0
166.998112 57.0
167.075352 44.0
168.006061 336.0
169.01449 1792.0
170.037428 91.0
170.071928 12.0
170.096198 11.0
171.044237 294.0
173.024245 64.0
173.047435 12.0
174.030804 47.0
175.041572 112.0
176.047461 13.0
176.061761 17.0
177.05624 22.0
178.070519 16.0
178.995937 9.0
179.035257 40.0
179.083767 9.0
180.081476 27.0
181.013405 168.0
182.017784 11.0
182.190963 7.0
183.046142 8.0
184.050831 8.0
184.117291 12.0
185.02362 9.0
186.028369 14.0
187.041177 231.0
188.051386 36.0
189.060265 67.0
190.031334 11.0
190.067784 8.0
191.004873 15.0
191.030603 38.0
191.057682 6.0
192.005351 8.0
192.043361 16.0
192.9853 17.0
193.05063 25.0
194.019599 8.0
195.030638 19.0
196.101956 7.0
197.023525 16.0
198.032734 23.0
198.129244 10.0
199.044513 233.0
200.047771 23.0
200.141991 8.0
201.01884 35.0
201.12858 10.0
202.027059 48.0
202.079979 18.0
203.036418 178.0
204.081866 8.0
205.013575 6.0
205.031825 10.0
205.051445 39.0
205.160875 7.0
206.052864 7.0
207.031333 78.0
207.062333 10.0
208.000792 11.0
208.031891 12.0
208.113851 8.0
209.01363 18.0
210.017529 32.0
211.021028 26.0
211.039538 11.0
212.141036 7.0
213.020855 9.0
215.035863 255.0
216.044062 270.0
217.05027 130.0
218.028429 31.0
219.031998 154.0
220.043707 16.0
221.048985 33.0
223.023973 13.0
226.027249 28.0
226.040489 13.0
227.035748 126.0
228.040577 24.0
229.013546 24.0
229.034295 16.0
229.050605 25.0
230.022744 9.0
231.028183 33.0
232.035842 34.0
233.045691 285.0
234.051729 34.0
235.020888 20.0
235.062938 9.0
239.087163 7.0
243.011158 18.0
243.027958 95.0
244.036927 845.0
245.044936 1111.0
247.022503 92.0
248.032022 23.0
249.042031 10.0
254.024575 24.0
255.032623 91.0
256.036412 8.0
257.045321 16.0
258.01685 8.0
259.026488 17.0
260.031767 74.0
261.039026 780.0
262.049775 190.0
263.049803 21.0
263.059323 63.0
265.020441 25.0
267.001639 15.0
267.998217 7.0
268.999866 7.0
271.028124 33.0
272.032182 391.0
273.042951 819.0
274.04585 38.0
275.162728 47.0
276.027907 25.0
279.123994 12.0
281.047091 14.0
281.052031 69.0
282.03989 8.0
282.04978 14.0
283.026219 39.0
285.042086 15.0
287.011954 8.0
287.056794 10.0
288.028563 58.0
289.033621 1239.0
290.04543 719.0
291.050649 45.0
291.060689 15.0
300.023208 34.0
300.030008 130.0
301.033666 1032.0
302.044135 41.0
303.022164 11.0
303.051154 28.0
305.136971 17.0
314.0429 10.0
315.038409 10.0
315.052329 95.0
316.018118 19.0
316.032038 31.0
316.056418 37.0
317.034197 1696.0
318.041435 6461.0
319.048514 9102.0
326.041845 15.0
327.049114 32.0
329.029212 11.0
330.033941 7.0
331.041999 101.0
344.054003 25.0
345.059582 226.0
347.04045 235.0
361.048582 20.0
368.051314 7.0
381.152317 9.0
383.174625 6.0
389.051418 16.0
393.156602 13.0
407.064725 17.0
421.158278 11.0
421.180398 57.0
437.175778 8.0
445.070298 8.0
479.085756 26.0
480.091925 105.0
481.099124 7332.0

