>compound 
>formula C29H38O14
>parentmass 628.25997689872
>ionization [M + H3N + H]+
>instrumentation Unknown (LCMS)
>source file:/Users/fanzhoukong/Documents/GitHub/Libgen/data/EAD_PFP/0_unknown_/spectrum.ms
>quality UNKNOWN

>ms2peaks
113.040889 119.0
114.053438 242.0
115.056836 4190.0
116.064635 120.0
120.07857 51.0
125.038815 55.0
126.045323 104.0
127.047042 149.0
127.054772 268.0
128.071561 171.0
129.06793 61.0
131.047577 63.0
141.077505 70.0
142.048404 114.0
143.049573 1377.0
144.058972 49.0
145.050691 2981.0
147.043118 203.0
147.077588 87.0
150.050665 141.0
151.053123 789.0
152.060122 2155.0
153.070471 1538.0
154.06835 318.0
155.064609 631.0
155.087779 498.0
156.060397 205.0
157.060586 666.0
158.040585 55.0
159.044624 3630.0
160.053113 454.0
163.061349 2484.0
164.064888 451.0
165.072747 6413.0
166.078665 1874.0
167.077484 348.0
167.090154 568.0
168.060253 583.0
169.067582 451.0
170.038301 4862.0
171.050229 9719.0
172.053598 572.0
173.049597 102.0
173.062477 176.0
175.077425 89.0
176.061333 181.0
177.070152 246.0
178.079231 1413.0
179.08724 1089.0
180.067869 232.0
180.084959 255.0
181.077527 1566.0
181.093347 1292.0
182.076806 197.0
183.050995 1209.0
183.062905 897.0
184.051694 305.0
185.064463 530.0
186.030552 135.0
187.04072 5957.0
189.061128 103.0
189.073248 210.0
190.076757 235.0
191.082916 346.0
192.091734 106.0
193.067823 1426.0
194.076402 1699.0
195.083491 1202.0
196.05754 485.0
197.062888 2720.0
198.037717 3002.0
199.038446 2019.0
199.049506 14915.0
200.050015 201.0
201.053034 145.0
202.080842 90.0
203.079151 147.0
204.08274 99.0
205.071949 88.0
207.084336 1169.0
208.087855 807.0
209.096634 3207.0
210.065253 355.0
211.078802 9536.0
212.08623 6681.0
213.056019 2181.0
214.055268 74.0
214.069598 43.0
215.075517 946.0
216.040596 176.0
217.045354 811.0
217.052564 757.0
219.067652 4426.0
219.072002 11429.0
220.060531 70.0
221.05128 370.0
221.06439 854.0
222.071988 220.0
223.073117 950.0
224.048606 129.0
224.086736 114.0
225.060055 1175.0
225.067395 2544.0
226.089954 765.0
226.098794 804.0
227.097122 831.0
227.110402 729.0
228.041431 96.0
229.05146 73.0
230.062209 145.0
231.076688 17793.0
233.056985 36.0
235.074303 582.0
236.084692 2110.0
237.09124 5242.0
238.096899 105.0
239.072868 8767.0
241.077966 319.0
243.070043 679.0
247.075699 90.0
249.064526 82.0
249.093896 167.0
250.104535 64.0
251.075274 141.0
252.079033 88.0
253.089471 455.0
254.10034 6873.0
255.106979 8382.0
256.109358 133.0
259.061994 240.0
262.107701 70.0
263.115759 80.0
265.089847 589.0
266.090826 210.0
267.096925 585.0
267.106505 959.0
269.124422 7631.0
271.13376 819.0
272.142879 56.0
273.110137 77.0
275.106655 88.0
279.09862 68.0
281.126728 92.0
282.050587 58.0
283.102855 570.0
285.077623 122.0
285.092513 377.0
286.127212 453.0
287.140571 15996.0
289.094368 66.0
291.113286 122.0
294.294312 65.0
295.131831 23.0
297.115939 258.0
299.137206 373.0
303.118461 23.0
307.093367 23.0
309.118974 168.0
312.111001 134.0
324.076836 23.0
325.116385 195.0
329.14724 137.0
343.074224 48.0
345.098541 115.0
345.111271 72.0
347.367949 42.0
357.106497 52.0
381.131978 88.0
386.143722 44.0
399.148957 286.0
417.157725 889.0
431.167108 69.0
449.180637 2971.0
611.232103 516.0

