>compound 
>formula C19H28O10
>parentmass 439.15746809814
>ionization [M + Na]+
>instrumentation Unknown (LCMS)
>source file:/Users/fanzhoukong/Documents/GitHub/Libgen/data/EAD_PFP/0_unknown_/spectrum.ms
>quality UNKNOWN

>ms2peaks
123.043409 107.0
126.048716 34.0
127.054855 93.0
128.062794 399.0
129.072482 185.0
130.068231 81.0
131.06784 101.0
131.08578 145.0
132.971168 43.0
133.102248 299.0
135.074896 106.0
135.121576 129.0
137.059764 92.0
137.127434 99.0
139.053321 88.0
140.06014 31.0
141.071749 200.0
142.070668 40.0
143.077777 101.0
143.084797 54.0
144.082566 41.0
145.101495 235.0
146.097954 24.0
147.120423 140.0
149.05998 19.0
161.057357 19.0
161.061087 85.0
162.064696 72.0
163.077665 1280.0
164.064934 26.0
165.074053 215.0
166.064822 103.0
167.071221 94.0
167.08893 90.0
168.078099 72.0
169.099478 123.0
170.095837 41.0
171.115626 95.0
172.115335 36.0
173.102494 60.0
173.133424 194.0
174.067893 94.0
174.142863 31.0
175.147472 525.0
176.080861 104.0
177.089749 239.0
177.135369 110.0
178.081888 92.0
178.975867 69.0
179.091227 98.0
179.180367 44.0
180.084996 70.0
181.061755 96.0
182.099304 53.0
183.098743 72.0
183.122603 48.0
185.096481 54.0
185.131131 119.0
186.136169 48.0
187.111748 77.0
187.147928 202.0
189.162196 983.0
190.082195 40.0
190.171345 40.0
191.179104 2113.0
192.076833 71.0
192.988912 87.0
193.086902 56.0
194.096901 41.0
195.07532 23.0
195.09584 68.0
195.11499 83.0
196.109698 57.0
197.079427 76.0
199.014985 27.0
199.135235 93.0
200.061124 21.0
201.165583 1208.0
202.076682 42.0
203.181101 3534.0
204.08276 39.0
205.195428 1666.0
206.095927 38.0
207.029376 96.0
207.135096 29.0
207.173166 63.0
208.101995 53.0
208.121785 50.0
209.081054 42.0
209.106574 31.0
211.085942 50.0
211.095892 66.0
212.033461 32.0
213.16902 92.0
214.982148 59.0
215.180397 322.0
216.999175 79.0
217.198355 549.0
218.092954 42.0
219.011113 222.0
219.177883 67.0
220.014032 28.0
221.144511 108.0
221.183841 87.0
223.114079 55.0
223.140419 55.0
224.145408 25.0
225.164396 51.0
227.170924 46.0
227.179794 90.0
228.993622 29.0
229.195282 119.0
230.002771 39.0
231.01264 33.0
231.19135 73.0
231.20774 140.0
233.021098 52.0
233.151218 50.0
234.145497 50.0
235.170425 471.0
237.112333 63.0
237.128943 56.0
239.100111 70.0
241.188989 86.0
243.004347 28.0
243.215127 117.0
244.017866 33.0
245.027335 60.0
245.229804 156.0
247.172692 630.0
249.18509 532.0
251.126478 72.0
251.159088 49.0
252.127227 45.0
253.103466 58.0
255.050644 40.0
255.214933 114.0
257.033561 104.0
257.225181 111.0
259.043059 50.0
259.169209 40.0
261.179097 123.0
261.187037 334.0
263.203145 54.0
265.008473 21.0
265.144032 114.0
266.023701 34.0
267.07607 43.0
269.097058 35.0
271.043406 216.0
271.240186 24.0
273.059884 475.0
274.192602 37.0
275.074101 372.0
276.07749 81.0
277.084329 74.0
279.121467 73.0
279.152587 32.0
281.049495 69.0
281.069185 107.0
282.050534 23.0
283.051693 44.0
283.135773 84.0
285.05441 60.0
286.178549 26.0
287.196958 63.0
289.204276 46.0
289.217586 125.0
291.165054 36.0
293.174391 97.0
294.12117 30.0
295.069499 26.0
295.237779 41.0
299.076155 38.0
301.214573 106.0
303.23096 48.0
305.122288 23.0
305.216408 41.0
307.144806 64.0
309.254974 42.0
311.128692 81.0
313.108579 45.0
315.228657 176.0
317.245965 25.0
319.220693 33.0
321.205061 77.0
323.181498 62.0
325.202866 29.0
329.243142 37.0
329.250252 110.0
330.246411 22.0
333.260077 26.0
335.138675 30.0
337.173643 214.0
339.140801 60.0
339.229211 22.0
341.251188 34.0
343.192066 120.0
349.21984 54.0
351.172198 39.0
351.199717 86.0
353.244125 45.0
355.261243 47.0
357.187841 69.0
357.219311 99.0
361.233466 28.0
363.129484 119.0
365.182062 36.0
365.208282 60.0
367.13159 33.0
369.285788 71.0
371.227315 50.0
375.235741 54.0
377.261309 27.0
377.314589 41.0
379.175977 33.0
379.212237 123.0
379.252277 48.0
381.135664 49.0
381.263804 12.0
383.211592 34.0
383.297892 39.0
385.23743 113.0
389.237456 60.0
393.357211 545.0
394.36233 29.0
395.220729 53.0
395.265499 72.0
403.23793 53.0
403.2871 75.0
407.150186 67.0
407.195666 126.0
409.236284 50.0
411.220381 28.0
411.291911 35.0
419.128663 36.0
421.15268 53.0
421.24115 343.0
422.353729 32.0
423.332758 45.0
433.113727 33.0
435.124185 230.0
437.149583 1225.0
438.151712 207.0
438.278851 118.0
439.17552 568.0
439.2248 5623.0
439.24738 7549.0
439.28639 1240.0

