>compound 
>formula C15H20O10
>parentmass 378.1394678403
>ionization [M + H3N + H]+
>instrumentation Unknown (LCMS)
>source file:/Users/fanzhoukong/Documents/GitHub/Libgen/data/EAD_PFP/0_unknown_/spectrum.ms
>quality UNKNOWN

>ms2peaks
50.014582 679.0
51.02278 1484.0
52.030438 253.0
53.000867 41.0
53.039387 574.0
55.018023 565.0
56.026061 31.0
57.033629 193.0
57.037329 160.0
59.012486 1578.0
60.020644 62.0
61.028912 165.0
62.016271 30.0
63.024769 319.0
64.033557 70.0
65.040085 1906.0
66.045704 109.0
66.838622 21.0
67.057442 1465.0
68.02757 931.0
68.998148 315.0
69.010358 474.0
71.016075 73.0
73.031261 103.0
75.023728 60.0
76.026596 64.0
77.043004 1530.0
78.021152 147.0
79.020291 1127.0
80.027529 98.0
81.035847 877.0
82.043385 57.0
83.047334 410.0
84.025052 49.0
85.02927 1796.0
87.042806 51.0
89.034603 90.0
90.035701 38.0
91.052669 1278.0
92.041518 46.0
92.055618 101.0
93.033816 775.0
94.040934 82.0
95.049662 3494.0
96.022481 171.0
96.711019 20.0
97.032089 1836.0
98.039227 17.0
99.043765 125.0
99.046685 228.0
101.031762 66.0
102.04751 38.0
103.053428 53.0
104.057286 36.0
105.032875 444.0
106.005953 63.0
107.006821 35.0
107.015941 2612.0
109.028808 687.0
110.036626 289.0
111.044954 1382.0
112.012252 89.0
113.025391 1554.0
115.048567 116.0
115.054867 193.0
116.057375 52.0
117.064233 61.0
119.01191 22.0
120.021818 14.0
121.028446 55.0
121.031676 98.0
122.030625 44.0
122.034955 51.0
123.043453 2409.0
124.008101 48.0
124.017921 1020.0
125.025799 2617.0
126.035568 173.0
127.038346 1007.0
127.041656 2163.0
127.891064 14.0
128.061724 156.0
129.056942 21.0
129.075862 37.0
130.06493 49.0
131.062289 43.0
131.086949 32.0
132.016167 24.0
132.025167 23.0
132.099467 18.0
133.024345 40.0
133.026595 52.0
134.034073 21.0
135.010052 2365.0
136.01703 55.0
137.025418 710.0
138.031776 93.0
138.045606 39.0
138.583625 34.0
139.041835 5943.0
139.609584 27.0
140.053243 4901.0
141.018301 527.0
141.92479 12.0
142.067219 39.0
143.083698 24.0
144.040316 17.0
144.059116 29.0
145.054364 746.0
146.040022 27.0
146.109872 11.0
149.026567 81.0
150.037605 31.0
151.005114 92.0
151.027983 189.0
152.011952 1387.0
153.01366 74.0
153.02579 297.0
154.855007 23.0
155.051336 1633.0
155.070846 125.0
157.052143 94.0
158.093691 16.0
161.015186 13.0
161.032596 69.0
162.036104 51.0
163.003952 20.0
163.040232 79.0
163.063992 27.0
165.018779 153.0
165.061559 67.0
166.025797 25.0
166.051027 42.0
166.472926 62.0
166.498206 125.0
166.512106 61.0
167.039665 11699.0
168.038823 112.0
168.060413 70.0
168.083273 116.0
168.172203 33.0
169.011692 1573.0
169.395231 38.0
169.83668 21.0
170.02568 19.0
170.10744 8.0
171.518357 18.0
177.057257 30.0
178.033636 56.0
178.078076 27.0
179.046764 24.0
180.046992 24.0
180.094312 21.0
181.009151 168.0
181.0566 26.0
182.066389 37.0
183.029947 2756.0
184.041215 366.0
185.043303 217.0
189.016846 17.0
189.074746 15.0
191.000493 14.0
191.032983 129.0
191.070883 96.0
192.040301 30.0
192.991769 22.0
193.035309 62.0
194.402867 30.0
195.027576 61.0
195.095976 51.0
197.039682 21.0
197.090562 17.0
198.05305 581.0
198.39924 96.0
198.43374 73.0
199.067649 10208.0
200.491036 13.0
201.797014 18.0
203.090492 93.0
205.112788 8.0
207.028115 8.0
208.030103 8.0
209.050051 24.0
211.059057 33.0
213.109114 32.0
216.078209 8.0
219.028693 15.0
221.04562 46.0
223.063046 44.0
226.948229 8.0
232.02494 12.0
233.980827 9.0
237.038642 18.0
237.89305 8.0
239.083668 10.0
239.852247 8.0
245.114977 12.0
247.058964 22.0
248.145692 37.0
249.02144 8.0
251.055307 80.0
253.167593 8.0
253.571442 25.0
254.9617 11.0
256.023328 8.0
263.055576 18.0
265.019862 12.0
265.583131 8.0
267.061889 11.0
269.730824 9.0
271.99925 13.0
272.01705 24.0
275.991493 39.0
281.062894 12.0
283.06021 8.0
285.021597 11.0
293.075723 13.0
303.031705 19.0
311.993569 8.0
329.065739 46.0
329.088849 97.0
342.314656 18.0
376.255846 7.0
378.027023 158.0

