>compound 
>formula C16H14O6
>parentmass 303.08631916864005
>ionization [M + H]+
>instrumentation Unknown (LCMS)
>source file:/Users/fanzhoukong/Documents/GitHub/Libgen/data/EAD_PFP/0_unknown_/spectrum.ms
>quality UNKNOWN

>ms2peaks
50.015569 229.0
51.024479 519.0
52.031438 97.0
53.002587 7.0
53.038967 150.0
54.033827 5.0
54.043917 6.0
55.054656 109.0
55.934735 9.0
57.033935 11.0
57.069445 10.0
57.937094 10.0
59.012783 60.0
60.984832 47.0
61.007022 5.0
62.016571 99.0
63.023511 774.0
64.03072 41.0
65.040389 777.0
66.044419 83.0
67.018438 465.0
68.025447 77.0
68.996827 369.0
71.048575 40.0
72.938664 7.0
74.015173 16.0
75.015543 17.0
75.020633 36.0
76.028602 18.0
76.030312 65.0
77.039861 1204.0
78.043961 137.0
79.05717 355.0
80.048859 27.0
80.059379 46.0
81.037029 27.0
81.066139 20.0
81.070549 26.0
82.044578 20.0
82.071198 6.0
83.049417 44.0
85.033186 19.0
85.064806 8.0
86.015225 14.0
87.022995 8.0
87.045845 10.0
88.030214 36.0
89.040453 1417.0
90.046223 205.0
91.056712 1049.0
92.054981 83.0
93.035061 23.0
93.065301 19.0
94.04219 31.0
94.06594 35.0
95.015579 87.0
95.049959 12.0
95.084339 7.0
96.020859 35.0
97.055548 11.0
97.065198 24.0
98.015277 8.0
99.044057 43.0
101.040915 11.0
101.059625 12.0
102.046815 42.0
103.054724 137.0
104.049583 16.0
104.059583 11.0
105.033163 6.0
105.043203 7.0
105.063293 37.0
105.071323 57.0
106.040542 10.0
106.064752 19.0
107.049681 283.0
108.023891 35.0
108.063601 6.0
109.06593 33.0
110.037949 185.0
111.044209 408.0
112.086168 7.0
112.998617 20.0
114.050717 10.0
115.056216 305.0
116.048175 7.0
117.035915 790.0
118.043804 39.0
118.064034 8.0
119.048533 31.0
119.074193 9.0
119.085953 45.0
120.056453 9.0
120.078993 16.0
120.089733 12.0
121.063232 8.0
121.071852 7.0
121.102032 33.0
122.036331 13.0
123.047001 494.0
124.01821 68.0
125.023899 191.0
126.045749 29.0
126.054549 18.0
126.902858 7.0
127.051888 69.0
128.060907 216.0
129.058337 27.0
129.068347 68.0
130.041766 6.0
130.069696 61.0
131.051345 96.0
131.072665 31.0
132.017585 19.0
133.095814 8.0
133.102584 14.0
134.037763 25.0
135.045623 907.0
136.051572 204.0
137.024551 13.0
137.050931 75.0
137.061251 18.0
138.034381 14.0
139.04095 7.0
139.05136 119.0
140.048889 9.0
140.058169 13.0
141.062789 72.0
142.070998 10.0
143.072257 8.0
145.031046 595.0
145.968085 9.0
146.036755 22.0
146.095945 6.0
147.044735 6.0
147.114835 38.0
147.966794 10.0
148.121754 10.0
149.026843 13.0
149.061533 27.0
149.134493 9.0
150.030673 69.0
151.041492 704.0
152.037591 33.0
152.060541 43.0
152.079871 14.0
153.052711 32.0
153.061191 15.0
154.04325 7.0
154.05783 10.0
154.06513 36.0
155.051609 28.0
155.062579 36.0
155.073569 28.0
156.079169 15.0
157.094168 15.0
157.102758 18.0
158.071797 8.0
158.098897 14.0
159.043827 147.0
159.117947 8.0
160.088226 8.0
161.022905 10.0
161.133555 21.0
162.030135 28.0
162.134905 20.0
162.500574 12.0
163.042994 3374.0
164.041453 5.0
164.053993 9.0
165.020303 77.0
165.036663 126.0
165.051773 84.0
165.056803 101.0
166.028572 25.0
166.058882 12.0
166.074012 27.0
166.497202 6.0
167.038641 3859.0
167.048781 1598.0
168.059411 48.0
168.065761 49.0
169.05779 19.0
169.06672 39.0
169.09092 11.0
170.097479 11.0
171.066019 10.0
171.090369 13.0
171.104459 12.0
171.114709 7.0
172.090008 10.0
172.098988 8.0
173.061607 16.0
173.133777 19.0
174.030787 13.0
174.135477 6.0
175.111546 19.0
175.146546 19.0
176.046145 16.0
176.053945 16.0
177.056215 57.0
177.125305 5.0
178.026054 27.0
178.062644 16.0
178.078324 10.0
178.087484 9.0
179.035223 11.0
179.079793 13.0
179.088963 13.0
180.044623 477.0
180.989642 10.0
181.063452 35.0
182.075901 8.0
182.095721 13.0
183.047421 9.0
183.081891 10.0
184.05211 27.0
184.088 5.0
185.051539 16.0
185.059539 26.0
185.092859 9.0
185.135509 6.0
186.103129 6.0
187.041118 517.0
188.048627 7.0
188.075497 14.0
189.066917 19.0
189.162577 22.0
190.025846 6.0
190.065016 9.0
190.166316 7.0
190.999386 28.0
192.043265 27.0
192.074505 9.0
193.050534 1282.0
194.094553 9.0
194.123203 5.0
195.046973 5.0
196.049722 13.0
197.059181 66.0
197.101811 8.0
197.132071 8.0
198.060191 6.0
199.07894 7.0
199.11213 9.0
200.047659 33.0
201.054829 20.0
202.026938 25.0
202.077078 13.0
203.032108 8.0
203.068387 11.0
203.107487 5.0
203.175887 6.0
204.182507 34.0
205.047106 172.0
206.087855 9.0
207.033995 40.0
208.035974 7.0
208.143374 15.0
210.113933 6.0
211.073532 22.0
211.110512 8.0
211.134712 12.0
212.050972 11.0
213.052151 40.0
213.065011 12.0
213.163691 8.0
214.06285 16.0
214.16747 7.0
215.071599 65.0
217.090488 18.0
217.141018 9.0
217.161228 11.0
218.086107 7.0
218.126627 19.0
219.092717 6.0
221.117235 18.0
222.158525 8.0
224.049014 11.0
225.054573 11.0
225.148643 14.0
226.063842 13.0
227.072432 29.0
228.041821 13.0
228.080311 9.0
229.0563 11.0
229.08743 33.0
230.05817 11.0
230.07896 15.0
231.065189 16.0
231.173889 14.0
232.113198 7.0
232.137078 7.0
233.088808 13.0
235.130276 20.0
235.158806 7.0
235.170836 13.0
236.136285 33.0
237.053935 14.0
239.065694 20.0
239.142953 9.0
240.078563 7.0
241.050972 20.0
241.186362 7.0
242.058892 40.0
243.065851 190.0
245.08297 29.0
247.022208 8.0
248.990727 7.0
249.183977 20.0
250.154496 11.0
250.187046 10.0
252.043675 8.0
253.050884 45.0
254.063274 7.0
254.147593 16.0
255.066713 54.0
256.073682 27.0
257.079512 57.0
258.054271 42.0
259.06083 48.0
261.079809 131.0
261.109869 8.0
265.018466 17.0
266.999665 6.0
267.065285 59.0
267.169345 6.0
269.044464 15.0
270.059333 23.0
271.061582 29.0
272.065702 25.0
273.076511 42.0
274.0795 31.0
275.0177 10.0
281.054866 44.0
282.041105 6.0
282.054255 18.0
283.060384 49.0
284.066644 87.0
285.076353 381.0
286.048062 17.0
287.059622 48.0
287.104452 12.0
299.054584 6.0
300.063403 41.0
301.072222 704.0
302.079332 26.0
303.091531 3122.0

