>compound 
>formula C10H9NO2
>parentmass 176.0706
>ionization [M + H]+
>instrumentation Unknown (LCMS)
>source file:/Users/fanzhoukong/Documents/GitHub/Libgen/data/NIST_MONA/0_unknown_/spectrum.ms
>quality UNKNOWN

>ms2peaks
55.0162 0.469616
65.0388 0.788955
66.0466 0.272377
68.0247 0.291162
74.0144 0.206631
76.0161 0.187846
80.0131 0.225416
80.0502 0.507185
81.0323 0.460224
89.0379 2.216587
91.0415 0.187846
91.055 0.40387
93.0316 0.262985
95.0489 25.575279
96.0522 0.826524
102.0471 3.540904
103.0538 100.0
104.0489 4.545881
104.0571 4.893397
105.0443 9.955856
109.0491 0.28177
116.049 0.234808
128.0498 0.882878
129.0526 0.385085
130.0646 45.928431
131.0682 5.071851
146.0352 0.206631
146.061 1.098901

