>compound 
>formula C39H48O18
>parentmass 805.2913456993
>ionization [M + H]+
>instrumentation Unknown (LCMS)
>source file:/Users/fanzhoukong/Documents/GitHub/Libgen/data/EAD_PFP/0_unknown_/spectrum.ms
>quality UNKNOWN

>ms2peaks
50.015403 112.0
51.0236 780.0
52.029847 43.0
53.040215 383.0
55.019589 1061.0
57.035224 191.0
59.048718 27.0
61.028253 68.0
62.017141 33.0
63.024868 119.0
64.032875 39.0
65.038602 1918.0
66.04501 280.0
67.054327 765.0
68.999062 761.0
69.069872 334.0
71.013686 31.0
71.019466 25.0
73.029671 28.0
75.023806 51.0
76.031803 73.0
77.04136 1824.0
78.047197 318.0
79.053455 827.0
81.029749 102.0
81.035039 510.0
82.045237 58.0
83.009014 44.0
83.049184 110.0
85.031139 813.0
89.040208 436.0
90.047835 44.0
91.056463 1785.0
92.05379 56.0
93.033867 506.0
94.043834 265.0
95.050662 713.0
97.029236 333.0
98.036354 93.0
99.045751 41.0
101.041636 25.0
102.046553 131.0
103.05346 374.0
104.053318 44.0
105.055985 217.0
105.063015 223.0
106.039262 59.0
107.05448 3952.0
108.021577 57.0
109.031894 341.0
110.036642 104.0
111.043929 431.0
113.043113 16.0
114.047301 44.0
115.056978 1137.0
116.062655 141.0
117.070603 192.0
118.04458 71.0
119.050377 2203.0
120.019665 21.0
120.056155 38.0
121.029522 723.0
122.033859 48.0
123.033667 34.0
123.047787 1811.0
124.019004 20.0
125.024691 48.0
126.035549 87.0
127.054886 462.0
128.065033 1016.0
129.05135 36.0
129.07028 391.0
130.044808 66.0
130.076088 42.0
131.054405 714.0
132.058912 128.0
133.02882 52.0
133.04465 51.0
133.06499 253.0
134.036307 127.0
135.047604 1085.0
136.054682 38.0
137.050619 39.0
137.060929 189.0
138.037486 23.0
139.042954 1916.0
140.047401 134.0
141.057808 1164.0
141.062458 1027.0
142.067155 39.0
142.078845 37.0
143.042633 30.0
143.056693 100.0
143.075443 67.0
144.05672 124.0
145.056667 397.0
145.064927 474.0
146.048255 55.0
146.570813 24.0
147.044392 2428.0
148.055839 38.0
149.021727 53.0
149.027707 117.0
149.063587 121.0
150.032744 111.0
151.042351 1057.0
152.060209 175.0
152.580067 24.0
153.059636 1501.0
154.069643 35.0
155.042721 43.0
155.059781 94.0
155.084201 45.0
157.061885 247.0
157.068015 776.0
158.064053 56.0
158.075142 123.0
159.05088 265.0
159.07805 105.0
160.044477 28.0
160.053167 206.0
161.061084 326.0
161.071024 338.0
161.082224 528.0
161.095904 95.0
162.032272 182.0
163.041389 6829.0
164.051126 149.0
164.056146 203.0
165.070284 2022.0
166.023161 25.0
166.063551 38.0
166.076191 145.0
167.039548 325.0
167.059808 287.0
167.066148 129.0
167.085128 86.0
168.059046 318.0
169.062523 1386.0
170.07412 183.0
171.056678 527.0
171.064368 810.0
171.086158 165.0
172.052355 73.0
172.083195 27.0
172.102475 47.0
173.059952 389.0
173.075402 296.0
173.101182 90.0
174.0343 41.0
174.05625 71.0
174.0679 104.0
175.042477 1546.0
176.036674 26.0
176.053564 186.0
176.061364 102.0
176.084754 41.0
177.057141 1720.0
178.028279 772.0
179.036146 4117.0
180.048163 68.0
180.062633 79.0
180.082363 43.0
181.065691 999.0
182.072868 273.0
183.072225 331.0
183.078845 627.0
184.046403 59.0
184.053043 255.0
185.06181 816.0
186.070667 156.0
187.056795 1032.0
187.071535 526.0
188.050922 84.0
189.058459 1969.0
190.024087 74.0
190.048417 172.0
191.043664 607.0
191.054504 1055.0
191.065314 409.0
192.045581 98.0
192.064601 91.0
192.083591 104.0
193.055579 1346.0
193.071908 340.0
194.079136 141.0
195.050663 84.0
195.078033 158.0
195.093073 307.0
196.10006 23.0
197.064268 1856.0
198.069415 89.0
199.075762 736.0
200.05 67.0
200.05832 140.0
201.055797 843.0
201.560326 31.0
202.033484 85.0
202.062724 140.0
203.041452 145.0
203.051222 268.0
203.061002 286.0
203.090312 49.0
204.037939 68.0
204.061729 69.0
205.069126 1471.0
206.066344 49.0
206.088834 101.0
207.105471 2997.0
208.051078 27.0
208.092068 42.0
209.059776 182.0
210.036843 40.0
210.060963 87.0
210.066643 254.0
211.0802 904.0
212.047688 75.0
213.057435 959.0
214.066702 158.0
215.072609 1360.0
216.046317 94.0
216.065037 57.0
217.055424 956.0
217.068404 428.0
218.095811 179.0
219.083569 456.0
219.105309 5959.0
220.077916 37.0
220.101186 91.0
220.122976 29.0
221.055613 213.0
221.086183 101.0
222.069031 36.0
223.070128 124.0
223.087688 198.0
224.052965 60.0
225.054123 713.0
226.05013 64.0
226.06191 325.0
227.057207 163.0
227.073447 1137.0
228.062094 163.0
228.073934 210.0
229.057332 644.0
230.069579 53.0
230.093369 28.0
231.075146 1062.0
232.051554 32.0
233.058431 65.0
233.083871 505.0
234.088468 859.0
235.098266 3450.0
236.048523 19.0
237.04592 36.0
237.05648 117.0
237.06553 158.0
237.08212 65.0
238.063578 213.0
239.075825 2710.0
240.037092 46.0
240.052282 73.0
240.079602 89.0
240.099332 60.0
241.05354 472.0
241.06419 556.0
241.08853 47.0
242.046217 92.0
242.061457 348.0
243.065364 2715.0
244.033102 76.0
244.057582 91.0
244.072891 164.0
245.085559 3178.0
246.091106 442.0
247.069443 644.0
247.100243 260.0
248.086761 30.0
249.055148 71.0
249.069068 136.0
249.090708 211.0
249.113918 103.0
250.059495 51.0
251.073643 226.0
252.07426 49.0
252.08983 29.0
253.051967 147.0
253.067547 178.0
254.058095 401.0
255.069342 3641.0
256.076339 2922.0
257.083727 8671.0
258.069504 74.0
258.088394 167.0
259.061901 1060.0
260.105168 151.0
261.077706 45.0
261.084046 217.0
261.098306 153.0
261.107796 200.0
262.061583 24.0
263.0632 65.0
263.08386 115.0
263.09976 153.0
265.057825 82.0
265.073785 148.0
265.088125 90.0
266.044362 57.0
266.055562 170.0
267.07119 6335.0
268.039017 89.0
268.056657 48.0
268.077497 158.0
269.082504 2252.0
270.045912 25.0
270.060402 55.0
270.078132 41.0
270.092602 43.0
271.069129 2096.0
272.050636 45.0
272.070016 166.0
273.082464 1725.0
275.049648 56.0
275.059388 98.0
276.087155 22.0
277.072803 444.0
278.06347 23.0
279.075547 621.0
279.101737 37.0
280.074725 134.0
281.080612 811.0
282.048779 45.0
282.098159 36.0
283.073037 323.0
283.084567 313.0
284.071054 665.0
285.082431 11842.0
286.083979 139.0
286.088959 231.0
287.088956 796.0
287.092286 1223.0
287.876274 21.0
288.069113 114.0
288.521542 26.0
289.075891 3316.0
290.077778 25.0
291.066335 125.0
291.079695 94.0
292.076673 46.0
293.07701 88.0
293.09715 137.0
293.11225 146.0
294.099247 59.0
294.136207 52.0
295.059275 30.0
295.086214 271.0
295.135014 125.0
296.069792 65.0
296.079902 52.0
297.087069 2017.0
298.060426 36.0
298.082426 75.0
298.121336 23.0
299.131954 5221.0
300.052661 52.0
300.069631 189.0
300.41762 20.0
301.073358 1874.0
302.083876 17.0
302.095816 48.0
303.111433 1043.0
304.07753 53.0
305.057138 43.0
305.079388 109.0
305.099928 64.0
307.079472 348.0
307.086312 678.0
308.06387 50.0
309.084347 1729.0
310.104734 64.0
310.120264 208.0
311.126851 1777.0
312.143699 1242.0
313.111926 539.0
313.125786 1784.0
313.139666 1087.0
314.079913 61.0
314.111193 18.0
315.056381 35.0
315.096361 78.0
315.112011 199.0
315.132891 79.0
317.066165 63.0
317.095805 45.0
318.047243 19.0
319.08408 39.0
319.10333 104.0
320.068267 37.0
320.134857 32.0
321.075035 117.0
321.089075 141.0
321.106625 327.0
321.120665 135.0
322.099202 69.0
322.125572 424.0
323.119739 847.0
323.132069 2291.0
324.115406 37.0
324.138356 40.0
325.103804 536.0
325.128524 221.0
326.121991 39.0
327.097488 1263.0
329.058173 70.0
329.091923 84.0
329.116823 60.0
329.143473 56.0
331.087098 50.0
331.119168 36.0
332.061035 22.0
333.070402 43.0
333.136562 271.0
335.082937 84.0
335.095507 105.0
335.109857 204.0
335.122397 108.0
336.122024 39.0
337.076372 24.0
337.092572 108.0
337.110552 85.0
337.126722 98.0
337.148331 65.0
338.105939 38.0
339.088326 105.0
339.117196 600.0
340.135413 2097.0
341.128021 2935.0
341.140661 13637.0
342.259768 27.0
342.500857 72.0
342.609647 47.0
343.039516 31.0
343.093936 78.0
343.122985 217.0
343.754754 22.0
344.085383 33.0
344.370752 24.0
345.13833 2176.0
346.138177 25.0
347.101155 57.0
347.115775 134.0
349.065899 43.0
349.086039 88.0
349.109849 48.0
349.133619 27.0
350.082437 33.0
351.096774 1300.0
351.107794 973.0
353.126159 316.0
353.142729 656.0
354.115386 47.0
355.120783 252.0
355.137413 315.0
356.12759 64.0
357.087698 75.0
357.137688 417.0
359.112042 57.0
360.0966 27.0
361.082527 39.0
361.121597 43.0
361.145797 37.0
363.075202 127.0
363.086402 311.0
364.134339 86.0
365.142606 1418.0
366.150384 33.0
367.078851 66.0
367.135161 201.0
368.126918 34.0
369.133166 146.0
369.148216 257.0
370.138903 37.0
371.05919 31.0
371.11958 29.0
373.075385 42.0
373.132155 73.0
374.082682 25.0
374.135752 51.0
375.09894 289.0
376.070957 24.0
377.082304 34.0
377.105134 63.0
377.122254 75.0
377.139374 80.0
378.096891 27.0
378.119751 40.0
378.146421 48.0
379.078519 32.0
379.103329 35.0
379.131949 70.0
379.164359 79.0
381.101063 994.0
382.149761 90.0
383.150068 2063.0
385.098823 42.0
385.112283 53.0
385.123813 32.0
386.497689 34.0
387.087217 33.0
387.110357 68.0
387.123847 63.0
387.139257 61.0
388.092015 33.0
389.084592 35.0
389.111662 99.0
389.134852 104.0
391.075497 25.0
391.118127 85.0
391.143306 68.0
391.151056 102.0
391.162676 39.0
393.090901 172.0
393.104481 1125.0
394.103468 138.0
395.080336 53.0
395.121226 275.0
395.150436 72.0
396.089573 46.0
397.10599 43.0
397.15092 68.0
398.104158 39.0
399.111425 202.0
399.127075 187.0
400.116022 23.0
401.12973 178.0
403.103964 42.0
403.119714 41.0
404.107682 29.0
405.100789 361.0
405.120529 169.0
406.114876 345.0
406.136606 78.0
407.114424 161.0
407.140113 1977.0
409.111238 42.0
410.080726 49.0
411.095063 111.0
411.118893 1267.0
412.12655 80.0
413.123497 90.0
415.101062 41.0
415.109032 101.0
416.115559 60.0
417.097337 60.0
417.127337 215.0
418.102274 34.0
419.128461 80.0
419.150521 239.0
421.126346 85.0
421.154486 46.0
423.070551 47.0
423.106811 34.0
423.118921 59.0
423.14309 50.0
424.120998 56.0
425.116175 867.0
425.130305 5717.0
427.09587 30.0
428.112777 18.0
429.124794 3810.0
431.130069 118.0
431.152439 189.0
433.119634 185.0
433.137974 63.0
434.125301 32.0
435.107628 48.0
435.123988 203.0
436.129936 41.0
437.112483 39.0
437.163683 133.0
438.14739 25.0
439.128098 56.0
439.169147 57.0
439.183517 45.0
441.131872 37.0
443.146427 43.0
443.160837 175.0
443.177347 267.0
445.151061 62.0
445.169681 50.0
447.096036 70.0
447.135396 1208.0
447.149896 775.0
448.163413 46.0
449.107531 75.0
449.126211 154.0
449.138661 159.0
451.140145 38.0
451.171365 28.0
453.12318 53.0
453.14613 50.0
453.17323 45.0
455.114715 22.0
455.215034 32.0
456.181182 51.0
457.175569 70.0
459.127704 20.0
459.142384 19.0
460.118981 25.0
460.154711 45.0
460.169421 48.0
461.149218 125.0
461.176558 1518.0
462.155316 179.0
462.172166 1486.0
463.177253 1348.0
465.154848 69.0
466.163185 39.0
467.159942 202.0
467.170502 1561.0
469.152337 20.0
469.171447 34.0
469.199027 25.0
471.166001 83.0
472.191489 36.0
473.088086 34.0
473.141376 60.0
473.192516 54.0
474.175393 42.0
475.161421 36.0
475.178511 55.0
475.189191 45.0
477.098056 47.0
477.170815 26.0
479.17374 271.0
480.182127 776.0
481.198025 7296.0
483.110309 35.0
483.168449 27.0
484.176717 78.0
484.193956 82.0
485.192514 6846.0
486.179121 38.0
487.168919 59.0
487.186228 86.0
487.199198 41.0
488.166206 23.0
489.168853 95.0
489.173163 117.0
489.188353 179.0
491.142458 30.0
494.622208 30.0
499.173006 45.0
501.149141 69.0
501.190831 40.0
501.51984 22.0
501.55493 38.0
502.186978 364.0
503.192925 12793.0
503.199515 15153.0
504.782951 34.0
505.15499 21.0
505.18581 145.0
505.19683 120.0
506.893666 34.0
507.164995 73.0
507.180435 168.0
509.1193 29.0
509.170119 54.0
515.180383 35.0
517.192398 34.0
519.226212 35.0
523.148872 36.0
523.195922 170.0
527.176261 35.0
529.170946 38.0
531.17619 31.0
533.142245 30.0
533.160375 31.0
533.194315 33.0
537.130704 37.0
537.162504 23.0
538.148342 39.0
539.157799 34.0
545.207033 59.0
547.203427 72.0
549.123162 19.0
551.149707 183.0
551.172717 85.0
553.177721 24.0
555.154036 177.0
555.186376 41.0
556.167763 75.0
557.17319 30.0
562.134907 23.0
567.179264 29.0
569.166448 360.0
573.160518 28.0
573.188647 21.0
574.162345 28.0
574.183525 51.0
575.174482 42.0
577.210917 21.0
579.175451 34.0
586.162983 25.0
587.17848 2421.0
589.167065 16.0
589.216984 43.0
589.266914 35.0
591.175599 52.0
592.181216 20.0
593.192384 41.0
593.230524 14.0
594.218741 34.0
595.174308 41.0
605.196381 52.0
605.239771 48.0
606.213829 59.0
607.181356 47.0
607.222436 181.0
607.246546 110.0
609.172071 31.0
609.208331 45.0
609.266371 16.0
611.199905 36.0
623.217503 270.0
624.23527 257.0
625.234288 390.0
625.263708 203.0
629.191617 128.0
637.232665 16.0
641.197925 62.0
641.227655 99.0
641.245045 84.0
642.168202 42.0
642.235222 245.0
643.246019 4784.0
647.199989 28.0
647.239909 81.0
648.476595 18.0
651.231108 28.0
653.187523 27.0
664.247553 42.0
665.2528 649.0
665.2705 351.0
669.240759 30.0
677.229628 57.0
685.258176 23.0
704.467415 8.0
709.241442 19.0
713.183701 24.0
713.215071 37.0
717.205111 69.0
719.216095 17.0
731.219353 263.0
731.256403 201.0
736.231849 27.0
738.245394 41.0
749.222785 400.0
751.262029 18.0
760.610754 8.0
768.275773 28.0
769.278031 43.0
786.270965 94.0
787.279382 69.0
803.271829 22.0
804.288307 92.0
805.263774 88.0
805.291544 531.0

