>compound 
>formula C22H26O7
>parentmass 403.17513417497
>ionization [M + H]+
>instrumentation Unknown (LCMS)
>source file:/Users/fanzhoukong/Documents/GitHub/Libgen/data/EAD_PFP/0_unknown_/spectrum.ms
>quality UNKNOWN

>ms2peaks
115.057495 1549.0
116.062136 89.0
117.067957 140.0
117.072197 220.0
119.05093 212.0
121.064573 65.0
122.018204 22.0
125.039528 44.0
126.042749 91.0
127.049981 157.0
128.063432 969.0
129.070893 106.0
131.050566 189.0
139.056347 50.0
141.073639 150.0
142.084231 53.0
143.071472 902.0
143.087882 974.0
144.056263 241.0
145.034995 1460.0
145.052695 1060.0
146.039526 105.0
146.072666 228.0
146.080966 182.0
147.045147 5205.0
148.054229 875.0
149.06076 327.0
150.046701 105.0
151.053973 281.0
152.064604 1229.0
153.070135 2181.0
154.080177 534.0
155.056938 638.0
155.072808 1228.0
155.084998 840.0
156.060049 436.0
157.067621 2431.0
158.039022 745.0
158.043942 496.0
159.038123 479.0
159.049253 949.0
159.062833 1067.0
160.009395 244.0
160.037895 354.0
161.024636 421.0
161.059446 400.0
161.076856 834.0
161.097986 471.0
162.040597 82.0
163.040999 577.0
164.06204 39.0
165.069902 287.0
165.076192 497.0
166.072013 159.0
167.055634 58.0
167.079704 230.0
168.057395 458.0
169.068517 1167.0
170.069908 226.0
170.083958 160.0
171.08193 4146.0
172.054561 187.0
172.067411 295.0
172.520031 45.0
173.058282 1283.0
173.082772 1003.0
174.071414 531.0
175.042115 5233.0
176.049306 4796.0
177.058098 731.0
179.06727 143.0
179.08298 72.0
179.08693 126.0
180.074122 59.0
180.112252 74.0
181.057453 234.0
181.067983 403.0
182.072524 38.0
182.101614 82.0
183.083816 1980.0
184.054047 1472.0
185.062818 4584.0
186.05296 82.0
186.06633 472.0
187.040411 8917.0
188.085532 94.0
189.021764 9568.0
190.052145 44.0
191.037936 15257.0
192.054768 51.0
192.974989 46.0
193.093389 48.0
195.117412 119.0
196.092913 48.0
197.066724 488.0
198.066376 509.0
199.075467 4437.0
200.045568 552.0
200.055268 315.0
201.05829 7190.0
202.052691 78.0
202.070811 233.0
203.032802 696.0
203.052342 755.0
204.040464 61.0
205.053435 3676.0
207.030488 370.0
209.05244 61.0
209.13885 69.0
210.120352 66.0
211.081373 906.0
211.088493 388.0
212.051734 302.0
213.048606 164.0
213.055766 11501.0
214.066457 1164.0
215.065178 318.0
215.072368 632.0
216.07343 66.0
216.08209 285.0
217.092711 15989.0
218.165003 66.0
219.067394 42.0
221.062666 39.0
222.150558 47.0
224.109931 59.0
225.128852 152.0
225.159722 110.0
226.066123 142.0
226.136833 128.0
226.315113 175.0
227.074714 27017.0
228.084066 11713.0
229.046737 1905.0
229.063047 16597.0
230.057488 401.0
231.06601 149.0
231.07643 164.0
233.080673 89.0
233.086653 28.0
234.193214 23.0
236.090477 38.0
238.128399 23.0
239.151391 67.0
240.083982 64.0
241.155283 34.0
243.068256 4236.0
244.075787 392.0
244.250287 128.0
244.297758 207.0
244.766508 39.0
245.085409 23389.0
247.064671 23.0
259.596568 23.0
261.07603 186.0
273.215146 23.0
275.095059 946.0
281.198797 52.0
282.182008 122.0
283.18671 204.0
283.1999 86.0
287.092235 68.0
297.119138 577.0
299.092981 37.0
300.078122 178.0
301.109074 1777.0
302.732946 57.0
304.096318 30.0
305.72651 98.0
309.415115 23.0
312.275258 23.0
314.073021 263.0
314.086901 98.0
314.354331 41.0
314.580162 82.0
315.127702 28133.0
317.101065 70.0
329.124001 450.0
329.145301 534.0
331.112134 411.0
331.122814 540.0
333.140206 978.0
359.169721 675.0
362.901786 41.0
367.058382 24.0
368.277463 24.0
371.425538 24.0
376.090154 46.0
380.84697 24.0
381.271501 70.0
385.268236 24.0
387.147209 75.0
392.011995 52.0
401.149607 37.0
401.171187 146.0
401.815018 89.0
402.172499 60.0
402.626449 67.0
403.17897 32868.0

