>compound 
>formula C22H26O12
>parentmass 505.13164727282
>ionization [M + Na]+
>instrumentation Unknown (LCMS)
>source file:/Users/fanzhoukong/Documents/GitHub/Libgen/data/EAD_PFP/0_unknown_/spectrum.ms
>quality UNKNOWN

>ms2peaks
50.015607 157.0
51.023827 381.0
52.029388 101.0
53.039048 83.0
54.039688 46.0
55.055498 165.0
56.047019 32.0
57.070329 23.0
60.98274 33.0
62.01293 39.0
63.02063 43.0
63.02374 306.0
64.03018 46.0
65.03828 932.0
66.040711 38.0
67.054021 350.0
68.992261 126.0
71.048912 16.0
73.042812 13.0
74.015552 32.0
75.005753 49.0
76.029013 100.0
77.039433 1111.0
79.051523 180.0
80.046694 55.0
81.068374 216.0
82.060154 41.0
83.088314 57.0
84.078864 14.0
86.015765 39.0
87.023555 16.0
89.035485 119.0
89.039175 219.0
91.057316 1690.0
92.055596 180.0
93.062146 163.0
94.064677 22.0
95.067797 64.0
95.954337 22.0
96.068567 18.0
97.027277 11.0
98.094537 25.0
99.992708 20.0
102.042608 126.0
103.051488 206.0
105.069079 209.0
106.064529 90.0
107.081899 90.0
109.09949 36.0
111.0017 48.0
113.000511 25.0
115.049741 23.0
115.054991 521.0
116.058571 82.0
117.063321 166.0
118.072402 40.0
119.085812 67.0
120.079932 30.0
122.098982 33.0
126.044553 35.0
127.052903 121.0
128.059704 187.0
128.065264 245.0
129.053814 44.0
129.070514 88.0
130.067394 123.0
130.990734 50.0
131.051304 113.0
131.081574 47.0
132.019765 57.0
132.074925 26.0
133.081075 43.0
134.095565 24.0
135.016005 37.0
136.088125 8.0
136.113255 28.0
138.089606 11.0
139.054816 67.0
140.045416 22.0
141.069766 185.0
141.926257 13.0
142.062837 43.0
142.072177 59.0
143.033607 35.0
143.079307 70.0
144.065297 21.0
144.081757 36.0
145.068817 31.0
145.081807 59.0
146.091238 27.0
147.087548 37.0
148.109868 15.0
149.129768 13.0
150.046348 22.0
151.054819 53.0
152.064229 197.0
153.068529 69.0
154.070079 61.0
155.073649 28.0
156.08048 17.0
157.08935 56.0
158.09653 48.0
160.08958 35.0
162.126291 15.0
163.053121 41.0
164.060421 59.0
165.069532 228.0
166.069112 50.0
167.075522 87.0
168.053212 30.0
168.071012 35.0
169.082182 46.0
169.096182 49.0
170.096373 38.0
170.106593 39.0
171.105923 32.0
172.114583 32.0
173.094023 13.0
173.113353 22.0
175.145454 22.0
176.063244 52.0
176.978224 15.0
177.065544 26.0
178.077254 160.0
179.080014 36.0
179.082634 82.0
180.081665 40.0
181.072905 57.0
182.189835 54.0
183.035745 25.0
183.115275 24.0
184.037746 26.0
184.110856 22.0
185.134446 12.0
186.123436 20.0
187.127146 20.0
188.071726 22.0
189.067217 78.0
190.072047 67.0
190.999667 90.0
191.079557 40.0
192.092447 38.0
192.975977 81.0
194.083938 32.0
194.094868 34.0
195.092438 20.0
196.110398 24.0
198.089458 30.0
199.055789 13.0
202.076039 98.0
203.07993 55.0
203.14275 42.0
204.0779 36.0
204.09191 30.0
205.10639 25.0
207.03156 121.0
208.039191 26.0
208.111251 19.0
209.067671 34.0
210.991361 25.0
212.995362 15.0
215.083512 79.0
216.087502 22.0
217.093812 17.0
218.089433 25.0
219.100403 19.0
220.094803 14.0
222.126864 20.0
225.069734 9.0
226.080524 38.0
227.077335 20.0
229.087925 22.0
231.101415 12.0
233.065396 8.0
234.971596 19.0
239.084417 15.0
241.094128 29.0
242.079268 11.0
243.116818 21.0
244.109138 29.0
246.127509 16.0
248.988219 31.0
249.984689 15.0
251.00334 17.0
252.07382 11.0
254.0514 10.0
256.938821 17.0
258.234331 8.0
261.159592 8.0
265.019153 32.0
266.186203 26.0
267.001933 50.0
268.072283 92.0
269.011393 8.0
270.960674 44.0
275.122395 8.0
279.060476 19.0
281.050676 171.0
282.053366 29.0
283.051256 38.0
293.194109 8.0
295.055619 20.0
298.0855 14.0
303.051471 14.0
306.050041 20.0
308.206352 8.0
320.064514 30.0
325.073575 13.0
326.066955 18.0
326.079316 27.0
333.046967 17.0
337.068998 14.0
338.071528 45.0
340.292449 16.0
343.075649 9.0
348.06351 18.0
348.99075 14.0
350.074981 12.0
351.294921 8.0
353.000861 12.0
355.078222 36.0
356.086822 82.0
365.060154 25.0
367.078774 57.0
368.115544 8.0
371.076115 113.0
373.084785 13.0
379.080387 15.0
382.071237 23.0
383.071418 94.0
385.085338 118.0
385.091108 215.0
387.123818 8.0
395.07255 43.0
397.08259 93.0
397.10994 29.0
399.099711 23.0
408.083573 133.0
409.089493 34.0
411.107043 22.0
413.089734 17.0
414.091814 104.0
415.099134 633.0
416.111645 133.0
417.127425 30.0
426.068137 55.0
426.092427 49.0
427.100027 36.0
428.423087 21.0
429.122917 31.0
439.095389 9.0
439.097459 33.0
441.14028 8.0
444.10189 15.0
445.111961 60.0
455.077323 8.0
455.091943 71.0
457.110833 11.0
469.105926 45.0
473.103267 41.0
475.123257 15.0
485.106509 15.0
486.125429 32.0
487.123809 156.0
503.120763 109.0
504.114443 102.0
504.125463 258.0
505.131133 3521.0
505.146553 3371.0

