>compound 
>formula C36H42O14
>parentmass 721.2466770276401
>ionization [M + Na]+
>instrumentation Unknown (LCMS)
>source file:/Users/fanzhoukong/Documents/GitHub/Libgen/data/EAD_PFP/0_unknown_/spectrum.ms
>quality UNKNOWN

>ms2peaks
127.049355 19.0
127.055985 30.0
128.062804 190.0
129.064692 45.0
130.066041 60.0
131.0645 46.0
132.064529 35.0
135.109076 37.0
139.049881 37.0
140.05667 34.0
141.067129 104.0
142.066008 32.0
143.071927 36.0
144.080226 64.0
146.075494 16.0
164.062444 26.0
165.069053 108.0
166.074942 45.0
167.069961 59.0
168.065419 62.0
169.091858 30.0
170.098417 33.0
173.108964 14.0
175.037322 22.0
176.047101 40.0
177.059779 39.0
178.058368 29.0
178.075368 59.0
179.074197 63.0
180.079766 105.0
181.078925 39.0
181.092105 72.0
182.095374 38.0
183.032503 26.0
184.077012 57.0
185.104511 35.0
186.10145 18.0
186.130839 18.0
188.055007 30.0
189.066566 90.0
190.067365 28.0
191.074854 617.0
192.079583 40.0
192.983492 62.0
194.087381 33.0
194.97959 30.0
196.109728 21.0
199.114535 41.0
201.036423 55.0
202.071152 37.0
203.080611 24.0
204.08138 26.0
207.033636 191.0
209.031524 33.0
210.129203 17.0
211.104482 21.0
213.06608 22.0
215.084178 50.0
216.083826 21.0
217.078595 37.0
219.119893 11.0
223.073139 12.0
225.055667 18.0
227.075014 32.0
229.082612 98.0
230.072641 32.0
231.06332 33.0
232.100889 32.0
233.113868 55.0
235.093866 16.0
242.093568 23.0
248.98723 34.0
253.106626 31.0
255.214983 22.0
257.225251 17.0
258.23016 12.0
261.977686 14.0
265.126542 12.0
266.99928 46.0
267.999039 17.0
273.144114 27.0
281.052825 100.0
299.060955 12.0
303.082621 23.0
319.080743 12.0
321.133131 12.0
329.141882 47.0
331.11222 12.0
348.125991 25.0
349.14665 12.0
351.117168 38.0
351.128188 53.0
353.122695 81.0
357.093481 35.0
361.090187 31.0
367.1185 79.0
368.125239 39.0
369.127738 36.0
373.105883 12.0
375.106741 85.0
377.095839 64.0
377.179549 12.0
379.151227 12.0
385.09522 22.0
391.097044 353.0
393.112521 139.0
396.121028 99.0
397.121877 281.0
409.119424 13.0
409.347303 51.0
411.139021 66.0
424.143457 19.0
439.136611 15.0
453.150595 15.0
455.169363 12.0
468.138959 20.0
485.14321 14.0
493.183511 47.0
511.161851 85.0
512.16347 150.0
513.170429 213.0
527.149663 12.0
528.160032 25.0
529.171331 123.0
530.17462 121.0
541.168568 57.0
544.258595 66.0
555.179843 33.0
557.1597 18.0
559.347018 27.0
569.157487 55.0
583.178772 18.0
597.186386 35.0
597.200736 47.0
598.209035 25.0
611.207611 24.0
661.231846 20.0
674.194731 34.0
676.236229 18.0
688.216016 52.0
689.213505 105.0
690.234874 55.0
691.226143 87.0
691.236393 172.0
702.22582 43.0
703.238639 213.0
704.231378 43.0
705.214347 149.0
706.226676 568.0
717.830173 21.0
718.208163 111.0
718.229163 128.0
718.846232 31.0
719.235022 1099.0
720.236301 4069.0
721.259369 8398.0

