>compound 
>formula C15H20O3
>parentmass 249.14852550331003
>ionization [M + H]+
>instrumentation Unknown (LCMS)
>source file:/Users/fanzhoukong/Documents/GitHub/Libgen/data/EAD_PFP/0_unknown_/spectrum.ms
>quality UNKNOWN

>ms2peaks
50.014822 317.0
51.023023 1098.0
52.031394 119.0
53.038935 574.0
55.051006 497.0
55.054646 1680.0
55.931807 17.0
57.033198 73.0
57.067238 125.0
59.04894 269.0
60.983351 45.0
62.015072 79.0
63.022793 273.0
64.022954 27.0
65.040465 1961.0
66.043705 171.0
67.053826 1572.0
68.053837 23.0
69.071008 2045.0
71.03962 82.0
73.060181 36.0
74.009432 51.0
74.016172 71.0
75.014013 46.0
76.028784 69.0
77.040045 2414.0
78.045886 530.0
79.056496 2034.0
80.057837 58.0
81.069888 1150.0
83.07823 201.0
83.08537 627.0
85.065062 2059.0
87.023273 19.0
89.039815 439.0
90.048376 70.0
91.058887 3403.0
92.059987 133.0
93.071288 1649.0
94.038709 43.0
95.08468 1028.0
97.029852 762.0
99.045403 31.0
101.052135 37.0
102.048196 159.0
103.054127 928.0
104.060988 191.0
105.071738 3405.0
107.08052 442.0
107.08559 1819.0
108.065061 40.0
108.084411 27.0
108.738221 23.0
109.102192 2038.0
111.044673 102.0
111.060153 104.0
111.079773 143.0
113.031375 30.0
113.064705 26.0
115.056707 3079.0
116.062388 467.0
117.071398 2244.0
118.037939 25.0
118.078379 99.0
119.08647 4081.0
120.058051 24.0
120.083821 68.0
121.078852 232.0
121.086402 328.0
121.100412 765.0
122.034703 36.0
122.105063 25.0
123.081244 669.0
123.102984 61.0
125.025565 1934.0
126.048526 124.0
127.052467 163.0
127.057987 600.0
128.062618 2295.0
129.071179 1197.0
130.078119 352.0
131.08563 1522.0
132.057601 52.0
132.091361 20.0
133.063652 407.0
133.083992 1816.0
134.083773 34.0
135.084994 2808.0
137.059615 192.0
137.061905 193.0
139.076277 703.0
141.058829 1282.0
142.07869 230.0
143.08703 733.0
144.081271 83.0
144.090671 161.0
145.099022 2157.0
146.071803 71.0
147.087044 376.0
147.091794 962.0
147.106054 350.0
148.091485 59.0
149.083815 783.0
149.096965 1571.0
150.047036 19.0
151.077177 1742.0
152.061308 229.0
152.070968 54.0
153.071649 214.0
153.082559 500.0
153.094699 373.0
153.106809 153.0
154.07564 70.0
155.07313 39.0
155.08777 759.0
156.094651 420.0
157.102322 1745.0
158.088613 167.0
158.107093 227.0
159.118774 1602.0
160.081605 31.0
160.089035 90.0
160.108875 50.0
160.123755 98.0
160.528125 24.0
161.062276 3654.0
161.072206 2459.0
162.064646 48.0
162.108286 33.0
163.071357 387.0
163.076357 1329.0
164.058618 29.0
164.074928 34.0
165.066479 102.0
165.079069 571.0
165.090389 760.0
166.07488 51.0
167.072441 638.0
169.075242 61.0
169.100722 195.0
170.111143 1070.0
171.078454 84.0
171.098954 183.0
171.115614 369.0
172.125605 384.0
173.098606 360.0
173.110196 455.0
174.106657 169.0
174.569737 23.0
175.076177 83.0
175.113767 1737.0
175.152647 584.0
176.074378 37.0
176.121168 23.0
177.063659 45.0
177.094959 72.0
177.121039 69.0
177.149719 64.0
177.171879 45.0
179.071551 594.0
179.099091 155.0
180.094232 23.0
181.089472 1254.0
182.091403 24.0
183.106724 40.0
185.125846 273.0
185.133826 2414.0
186.141547 44.0
187.149338 2647.0
188.085918 24.0
188.107418 27.0
188.122208 55.0
189.090849 90.0
189.111049 938.0
191.096561 74.0
191.106031 143.0
193.088333 542.0
195.119194 98.0
197.097386 28.0
198.102637 81.0
199.118738 19.0
200.120808 40.0
201.108709 33.0
201.132329 53.0
202.08514 19.0
203.146291 2274.0
205.121183 32.0
205.132393 142.0
205.147843 198.0
205.154863 402.0
207.140864 2876.0
208.066805 20.0
208.830546 25.0
213.129119 504.0
215.107271 88.0
217.098933 34.0
219.137424 28.0
221.153426 315.0
231.136465 1207.0
233.117036 75.0
234.126237 16.0
238.933771 25.0
248.318619 21.0
248.327879 24.0
249.15291 6265.0

