>compound 
>formula C17H26O12
>parentmass 445.13164727282
>ionization [M + Na]+
>instrumentation Unknown (LCMS)
>source file:/Users/fanzhoukong/Documents/GitHub/Libgen/data/EAD_PFP/0_unknown_/spectrum.ms
>quality UNKNOWN

>ms2peaks
50.018576 236.0
51.026081 1077.0
52.032325 229.0
53.04198 202.0
54.047654 28.0
55.056949 269.0
56.052113 17.0
57.065818 41.0
57.073218 35.0
59.048937 28.0
60.984817 59.0
62.018061 62.0
63.026556 303.0
64.03141 59.0
65.042645 1080.0
66.046669 133.0
67.056784 643.0
68.057588 51.0
68.999073 114.0
70.067507 19.0
71.051632 50.0
73.048861 42.0
74.019086 102.0
75.023701 43.0
76.034245 121.0
77.04122 1486.0
78.047034 299.0
79.055019 420.0
80.054573 258.0
81.071868 254.0
82.068072 23.0
82.077832 19.0
83.048937 35.0
83.090007 40.0
83.913542 17.0
84.003302 14.0
86.015591 28.0
87.023356 20.0
88.03055 29.0
89.042625 284.0
90.048399 60.0
91.057944 1688.0
92.058078 240.0
93.067463 178.0
94.068097 77.0
95.054022 22.0
95.086502 78.0
95.957747 18.0
97.012342 28.0
97.066381 41.0
97.951486 27.0
98.099876 13.0
99.996085 45.0
100.116615 30.0
102.044994 104.0
103.055849 175.0
104.058703 56.0
105.070428 151.0
105.074448 203.0
106.069892 50.0
107.070037 59.0
107.087277 52.0
108.077932 23.0
108.092192 37.0
109.065996 40.0
109.097706 55.0
111.001926 39.0
113.000705 51.0
114.050719 32.0
115.055144 848.0
116.058698 93.0
117.063433 145.0
117.067673 172.0
118.068238 103.0
119.070922 36.0
119.088022 50.0
120.044567 13.0
120.078917 42.0
121.053431 24.0
121.094391 89.0
121.107331 63.0
123.041461 19.0
123.06102 30.0
123.08601 23.0
124.056265 14.0
126.047794 49.0
127.056139 179.0
128.064053 413.0
129.067058 98.0
130.069493 124.0
130.990598 27.0
131.045527 35.0
131.055637 47.0
131.074687 66.0
132.021842 30.0
132.087142 30.0
133.072976 31.0
134.011431 49.0
135.041966 30.0
137.041475 32.0
137.060975 21.0
138.059399 21.0
139.068374 52.0
140.049729 38.0
141.069433 88.0
142.071828 37.0
143.075422 93.0
144.081367 51.0
145.083751 49.0
145.099101 32.0
145.971266 64.0
146.083716 32.0
147.07759 59.0
147.09423 22.0
147.967576 18.0
148.114185 22.0
149.05274 63.0
149.0659 20.0
150.048254 56.0
150.133454 19.0
151.056719 79.0
152.064923 207.0
153.071628 121.0
154.058563 31.0
154.074373 195.0
155.085277 51.0
156.079882 37.0
157.061736 38.0
157.087506 47.0
158.093431 29.0
158.099601 36.0
159.119885 24.0
160.07528 17.0
161.074555 21.0
162.047009 17.0
162.100649 22.0
163.053674 41.0
163.077434 76.0
164.044619 20.0
164.059679 49.0
165.072553 165.0
165.873999 17.0
166.073408 33.0
166.079718 36.0
167.076002 69.0
167.082342 103.0
168.074007 36.0
169.082631 67.0
170.066146 21.0
171.030741 1804.0
172.016055 18.0
172.102165 24.0
173.03642 30.0
173.07251 32.0
174.130904 15.0
175.147128 19.0
176.037614 518.0
177.061988 63.0
178.054053 53.0
178.073663 70.0
178.081503 83.0
179.063297 59.0
179.079027 44.0
180.076712 21.0
180.092482 28.0
181.078476 28.0
181.137806 18.0
182.064531 39.0
182.079071 48.0
182.100221 53.0
183.065176 27.0
184.04332 14.0
184.06059 17.0
185.021405 33.0
185.037395 53.0
186.03815 17.0
186.114329 24.0
187.038924 26.0
188.008819 37.0
189.072793 82.0
190.076298 21.0
190.084398 31.0
191.003913 24.0
191.041822 85.0
191.075682 131.0
192.062737 45.0
192.081747 105.0
193.006072 47.0
193.037382 114.0
193.048262 195.0
194.047236 37.0
194.078626 57.0
194.107276 15.0
195.09529 30.0
196.100905 25.0
197.08434 311.0
198.019245 2009.0
199.026819 1442.0
200.032814 913.0
201.046888 27.0
202.080243 52.0
203.091097 38.0
203.145557 42.0
204.090512 19.0
205.089546 25.0
205.159706 20.0
206.058691 63.0
207.034346 122.0
208.11688 27.0
209.135624 18.0
210.091549 16.0
211.061024 20.0
211.126504 20.0
212.155448 19.0
213.023863 15.0
214.064588 23.0
215.021623 230.0
216.029767 179.0
217.044592 26.0
217.105211 23.0
218.093626 22.0
219.079941 30.0
221.08543 34.0
222.063884 32.0
222.093084 43.0
223.024009 23.0
223.076679 43.0
223.098619 128.0
224.091784 49.0
225.059198 28.0
227.037218 16.0
227.068217 26.0
227.102167 22.0
229.052047 33.0
229.086156 25.0
230.047951 44.0
230.162371 15.0
231.053446 36.0
231.086216 59.0
232.11337 14.0
233.074035 16.0
234.215029 28.0
237.079713 19.0
239.053702 19.0
239.132482 20.0
240.051367 168.0
241.051082 13.0
243.047631 18.0
243.085801 16.0
244.056635 101.0
244.062755 219.0
245.06773 360.0
246.077834 664.0
248.095034 46.0
248.104303 24.0
250.968648 24.0
251.002788 24.0
253.111716 14.0
254.052371 16.0
255.079236 15.0
257.063815 29.0
257.077975 36.0
258.095179 18.0
261.059213 47.0
261.071883 52.0
262.071598 20.0
263.062103 43.0
265.023212 36.0
267.018811 42.0
267.030011 47.0
267.041211 36.0
268.025026 16.0
268.047496 41.0
270.202544 15.0
272.102764 20.0
273.184888 18.0
276.076192 16.0
279.134865 18.0
280.021031 11.0
281.053065 106.0
282.04589 18.0
283.060224 347.0
284.043379 41.0
285.061283 21.0
289.087902 18.0
291.105101 17.0
292.076995 20.0
293.05218 25.0
294.023975 23.0
295.096629 11.0
297.055298 34.0
297.078918 25.0
299.061088 16.0
301.100867 33.0
303.081026 26.0
304.07269 23.0
307.179294 12.0
310.046348 50.0
311.052783 1387.0
312.052197 37.0
312.086807 36.0
314.050626 36.0
314.090576 15.0
315.094841 21.0
315.23745 16.0
317.10475 14.0
321.089258 15.0
323.056528 13.0
324.064432 52.0
324.992707 40.0
325.107487 21.0
325.984192 16.0
326.963007 18.0
327.076376 15.0
329.092085 23.0
329.136515 19.0
330.114719 24.0
334.084978 16.0
335.092023 21.0
335.212192 12.0
337.065702 17.0
337.107052 17.0
340.057816 187.0
341.01591 27.0
341.05573 275.0
341.06296 1218.0
342.049655 45.0
342.071385 119.0
343.313598 18.0
347.124947 20.0
350.084311 22.0
351.080306 23.0
353.135405 19.0
354.07672 994.0
355.118954 54.0
356.088789 18.0
357.096963 86.0
359.028503 23.0
359.115752 17.0
359.232692 15.0
361.116022 21.0
361.129052 23.0
364.130555 26.0
367.073199 23.0
367.180199 17.0
369.086068 436.0
370.069123 350.0
371.111968 99.0
372.061822 19.0
372.078822 193.0
374.101571 15.0
377.114555 73.0
379.131824 15.0
381.078004 14.0
381.095223 22.0
381.114353 22.0
383.006153 15.0
383.186392 14.0
385.083322 28.0
385.166001 20.0
385.196761 27.0
386.102856 34.0
387.110231 332.0
389.12505 126.0
391.131539 31.0
392.211403 25.0
395.070428 49.0
395.093768 20.0
397.724893 34.0
397.752233 48.0
398.088351 309.0
398.553679 34.0
398.811858 16.0
399.103396 7628.0
400.11388 169.0
401.094225 22.0
401.156995 33.0
401.877391 19.0
402.421578 33.0
403.091954 14.0
407.135942 19.0
409.087222 27.0
412.112386 17.0
413.11131 15.0
416.115294 21.0
427.091494 56.0
427.144134 37.0
427.259554 29.0
428.165159 27.0
429.098104 51.0
443.647275 23.0
444.101312 59.0
444.128172 77.0
445.132047 4449.0

