>compound 
>formula C35H60O15
>parentmass 743.3824422273501
>ionization [M + Na]+
>instrumentation Unknown (LCMS)
>source file:/Users/fanzhoukong/Documents/GitHub/Libgen/data/EAD_PFP/0_unknown_/spectrum.ms
>quality UNKNOWN

>ms2peaks
114.002707 22.0
115.059467 117.0
117.075236 74.0
127.055303 66.0
128.068773 80.0
133.099312 22.0
146.097248 22.0
147.965717 56.0
149.024567 74.0
150.053607 64.0
151.058466 123.0
152.058236 308.0
153.064936 114.0
154.072536 164.0
155.074905 108.0
155.143215 112.0
156.081725 135.0
158.096534 100.0
163.055633 80.0
165.072012 287.0
167.034962 1089.0
169.043911 602.0
169.050271 1193.0
173.06171 94.0
174.12653 105.0
177.068059 82.0
178.074519 87.0
179.034019 100.0
180.082858 62.0
181.084648 174.0
183.091287 107.0
185.045007 48.0
185.108967 77.0
189.069736 105.0
191.006255 121.0
192.986685 94.0
193.162275 272.0
195.097714 50.0
198.101673 47.0
200.057483 47.0
204.086061 203.0
207.031291 71.0
209.07873 143.0
211.065109 48.0
221.079477 802.0
223.095576 64.0
225.082605 61.0
227.054835 99.0
229.106814 84.0
237.073662 509.0
239.085501 194.0
241.072391 70.0
245.06623 77.0
247.116239 94.0
249.139249 171.0
251.167408 39.0
253.068158 131.0
255.091877 771.0
257.098496 37.0
259.128736 90.0
263.057475 67.0
265.176494 775.0
267.083024 73.0
269.099223 1855.0
269.102423 3276.0
271.082682 54.0
273.089582 76.0
273.094462 188.0
275.165661 69.0
277.110971 263.0
279.13514 125.0
281.04841 121.0
283.070379 70.0
286.102878 51.0
287.114538 1589.0
291.158937 106.0
293.097816 69.0
294.222566 22.0
295.105376 101.0
296.127775 101.0
297.092805 120.0
299.186864 54.0
302.219084 56.0
303.166723 72.0
305.179323 63.0
307.095612 23.0
309.131532 754.0
312.163421 124.0
315.10229 276.0
315.10751 851.0
321.170558 344.0
323.150388 127.0
325.122187 90.0
325.129237 318.0
327.137196 126.0
335.162594 50.0
337.159844 75.0
337.197624 150.0
339.139573 54.0
339.175683 47.0
341.128742 653.0
343.141862 51.0
353.123249 165.0
355.143689 121.0
357.151418 201.0
363.217846 234.0
365.173326 144.0
365.235096 83.0
367.145335 307.0
369.229935 79.0
371.135454 50.0
375.205973 24.0
377.233382 80.0
383.127851 94.0
384.14671 120.0
389.164649 89.0
389.187839 24.0
391.217748 1043.0
393.217958 88.0
393.225748 298.0
395.137607 307.0
397.143927 33.0
397.155617 153.0
399.127906 53.0
401.146245 73.0
405.223884 67.0
407.210144 537.0
409.211153 23.0
409.219083 2383.0
411.161443 232.0
413.162172 702.0
423.238679 106.0
425.193779 189.0
425.215999 106.0
427.230338 228.0
435.249506 24.0
437.215755 97.0
439.167965 55.0
441.175954 118.0
451.265921 177.0
453.194961 123.0
453.232531 24.0
455.17623 136.0
457.17647 53.0
459.147509 40.0
463.232988 45.0
465.252947 151.0
467.220137 86.0
467.232837 144.0
469.172346 111.0
471.179676 480.0
471.217976 205.0
477.253064 137.0
479.234693 153.0
479.266883 1343.0
483.180152 214.0
483.203802 164.0
483.227522 274.0
485.208542 1448.0
487.189311 158.0
489.17844 77.0
493.279849 103.0
495.252999 1246.0
497.269448 3118.0
499.211188 152.0
501.180827 140.0
501.189577 603.0
509.274995 99.0
511.295384 259.0
515.719603 24.0
517.200072 166.0
522.079341 24.0
523.250671 263.0
525.2312 98.0
529.189999 46.0
537.272457 216.0
539.247496 138.0
541.228446 76.0
543.213005 248.0
545.189755 58.0
551.265743 115.0
553.259392 250.0
553.273242 501.0
555.282032 1840.0
557.213551 166.0
557.234361 250.0
563.318779 211.0
565.268909 93.0
567.275988 854.0
567.287648 1551.0
569.293688 2937.0
569.312368 1334.0
571.268117 1027.0
573.217817 137.0
577.355515 24.0
581.297894 214.0
583.269334 83.0
583.309554 248.0
585.267863 199.0
585.286783 274.0
587.243633 433.0
587.257913 335.0
588.226852 55.0
589.256082 935.0
593.300821 110.0
595.283 65.0
597.28758 50.0
599.276349 117.0
599.326699 149.0
601.270849 202.0
605.942357 24.0
607.295937 112.0
609.291666 345.0
610.302836 119.0
611.309976 1766.0
613.275855 287.0
613.287995 373.0
615.232765 98.0
616.241554 75.0
623.306672 116.0
623.318942 95.0
625.313812 297.0
625.335852 901.0
627.289761 157.0
629.266451 198.0
630.24979 154.0
631.25601 226.0
637.327788 51.0
639.310208 331.0
639.344938 157.0
641.323087 1500.0
642.323207 74.0
643.257107 578.0
652.347684 34.0
653.348904 908.0
655.341083 4642.0
657.291103 184.0
658.293542 91.0
659.311912 294.0
659.344562 634.0
669.328139 120.0
671.308979 367.0
671.334369 736.0
672.342428 361.0
673.341018 286.0
685.308055 180.0
685.323435 157.0
687.312394 96.0
693.360972 102.0
695.377022 155.0
697.346871 50.0
699.324661 405.0
700.29908 137.0
701.34162 199.0
711.341747 109.0
711.367867 728.0
712.371527 148.0
713.357607 473.0
714.357426 143.0
715.397286 267.0
725.401793 118.0
726.365113 60.0
727.371403 494.0
728.373052 180.0
729.372742 25.0
739.364989 68.0
740.364199 144.0
740.857419 85.0
740.889399 271.0
741.385439 3676.0
742.388669 4208.0
743.398008 29144.0

