>compound 
>formula C16H12O5
>parentmass 285.07575448461
>ionization [M + H]+
>instrumentation Unknown (LCMS)
>source file:/Users/fanzhoukong/Documents/GitHub/Libgen/data/EAD_PFP/0_unknown_/spectrum.ms
>quality UNKNOWN

>ms2peaks
50.01537 125.0
51.022179 200.0
52.027707 22.0
52.031947 39.0
53.039485 79.0
54.043714 13.0
55.018842 7.0
55.054452 61.0
56.049631 8.0
56.965689 26.0
57.070729 53.0
57.935398 10.0
60.985403 37.0
62.014821 40.0
63.02331 173.0
64.030518 22.0
65.040186 1110.0
66.044215 32.0
67.053533 84.0
68.026052 8.0
68.99663 198.0
71.084717 27.0
72.935964 9.0
74.014972 41.0
75.02213 140.0
76.030969 79.0
77.038807 693.0
78.040296 49.0
78.045496 82.0
79.055224 159.0
80.052172 18.0
81.033311 73.0
81.071231 29.0
82.042609 68.0
83.084938 8.0
84.081746 13.0
85.006794 6.0
86.017753 7.0
88.03002 10.0
89.039328 226.0
90.042316 46.0
91.056515 1503.0
92.056663 96.0
93.065112 21.0
94.0648 28.0
95.010609 9.0
95.048808 32.0
95.954447 9.0
100.030991 9.0
101.039739 324.0
102.047617 261.0
103.054526 89.0
104.060384 9.0
105.070132 24.0
106.065571 18.0
107.084969 7.0
108.084798 12.0
109.028916 7.0
110.037765 293.0
111.001703 14.0
111.044023 12.0
112.99843 40.0
114.047398 10.0
115.053927 491.0
116.057485 25.0
117.060103 28.0
117.068583 43.0
118.042562 60.0
118.062782 17.0
119.05049 178.0
120.057339 9.0
120.082029 11.0
121.064117 8.0
123.045734 1122.0
126.046669 40.0
127.055017 102.0
128.061836 262.0
129.033674 36.0
129.049254 41.0
129.069274 12.0
130.047163 39.0
130.992871 50.0
131.083691 13.0
132.02077 12.0
132.081559 9.0
133.032348 15.0
134.037576 14.0
134.978315 32.0
137.023212 47.0
139.054648 144.0
140.054507 6.0
140.061467 14.0
141.069595 144.0
141.930734 7.0
142.066164 19.0
143.074432 6.0
144.08274 14.0
145.966737 10.0
146.037757 7.0
147.045746 1594.0
148.052434 200.0
149.025482 6.0
150.044911 47.0
151.037719 14.0
151.041339 193.0
152.062788 513.0
153.070716 308.0
154.067394 28.0
154.074684 49.0
155.055093 16.0
155.075833 23.0
155.086813 70.0
156.081441 19.0
157.06452 76.0
158.071628 10.0
158.088868 7.0
158.096258 32.0
159.081936 15.0
160.068225 19.0
161.022733 8.0
161.065003 14.0
162.047422 19.0
162.125992 7.0
163.05409 203.0
164.063868 198.0
165.073007 748.0
166.068805 19.0
167.072684 41.0
167.080264 26.0
168.056702 117.0
169.06528 89.0
170.073039 27.0
171.050477 12.0
171.078667 18.0
173.060154 47.0
174.047413 13.0
175.040091 2684.0
176.049889 698.0
176.985678 8.0
177.059968 23.0
178.065096 13.0
178.078176 33.0
179.057345 12.0
179.069135 11.0
179.080935 13.0
180.060243 25.0
180.079953 20.0
181.065911 297.0
182.07572 54.0
183.079078 177.0
184.051947 51.0
185.062045 49.0
186.069563 20.0
187.075812 65.0
189.057339 55.0
190.064867 10.0
191.003296 20.0
191.072335 7.0
192.059394 45.0
192.986412 15.0
193.066722 57.0
194.073921 34.0
195.081009 22.0
196.050937 33.0
197.059026 302.0
198.066924 8.0
199.077403 56.0
200.048881 11.0
200.065521 8.0
201.053289 9.0
202.078298 23.0
203.075236 11.0
205.065193 14.0
205.159183 10.0
207.00002 7.0
207.03384 53.0
208.030168 14.0
208.051378 15.0
209.021817 7.0
209.040217 12.0
209.060057 50.0
210.065505 153.0
211.076214 389.0
212.086492 12.0
213.06057 117.0
214.061249 43.0
215.071457 80.0
217.087464 8.0
220.053519 38.0
221.063178 471.0
222.069326 58.0
223.076284 18.0
224.043003 7.0
225.041181 16.0
225.051481 24.0
226.06075 68.0
227.070818 79.0
228.077196 46.0
229.090255 107.0
236.047334 15.0
237.053782 100.0
238.06239 88.0
239.070099 982.0
240.081457 35.0
241.050836 24.0
242.058754 148.0
243.064183 74.0
249.053963 197.0
250.062961 89.0
251.06934 19.0
253.053887 21.0
254.058455 6.0
255.066573 339.0
256.076692 99.0
257.08096 1648.0
265.023118 25.0
265.051837 7.0
266.055956 81.0
267.066754 1353.0
268.073073 42.0
269.045941 13.0
281.053092 63.0
282.05742 19.0
283.052019 21.0
284.068187 59.0
285.077896 2753.0

