>compound 
>formula C8H10O3
>parentmass 177.05221518100998
>ionization [M + Na]+
>instrumentation Unknown (LCMS)
>source file:/Users/fanzhoukong/Documents/GitHub/Libgen/data/EAD_PFP/0_unknown_/spectrum.ms
>quality UNKNOWN

>ms2peaks
50.013955 85.0
51.020081 177.0
51.474523 315.0
52.026327 24.0
52.471739 80.0
53.037413 50.0
54.029418 17.0
55.053144 159.0
55.932509 59.0
56.04759 25.0
56.964405 1057.0
58.986517 1191.0
59.48716 56.0
59.983093 496.0
60.478806 43.0
60.981139 51.0
61.007919 47.0
62.011325 28.0
63.00348 59.0
63.01981 165.0
63.996456 34.0
65.035902 857.0
65.475105 30.0
66.031968 16.0
66.044698 84.0
67.054044 88.0
67.991049 402.0
68.989065 280.0
69.486308 11.0
70.994517 15.0
72.934138 26.0
72.989368 49.0
73.987884 24.0
75.011 33.0
75.02118 64.0
76.030036 61.0
77.035312 544.0
78.036808 57.0
78.043728 106.0
79.052613 179.0
80.049559 49.0
81.068625 84.0
82.075501 34.0
83.048417 23.0
84.957258 93.0
86.016084 17.0
87.928225 122.0
89.036771 133.0
89.928247 24.0
89.976567 30.0
90.48278 637.0
91.053973 1745.0
91.478866 406.0
92.987934 35.0
93.061635 55.0
94.059421 30.0
95.949051 12.0
97.992223 235.0
98.991659 273.0
99.487422 243.0
100.483638 199.0
100.9339 66.0
102.044157 40.0
102.951642 117.0
103.052063 59.0
103.922068 95.0
104.050939 36.0
105.063654 86.0
106.06313 22.0
107.042996 111.0
107.996831 121.0
108.491154 14.0
109.074568 33.0
109.49138 17.0
110.997229 38.0
112.99706 54.0
114.039766 23.0
115.052582 315.0
116.965533 118.0
117.065144 46.0
118.06467 36.0
118.950875 125.0
121.049917 64.0
121.063927 101.0
123.040139 44.0
126.045446 47.0
127.050492 81.0
128.058418 180.0
129.043614 23.0
130.063869 47.0
130.991705 13.0
131.051135 45.0
131.064595 40.0
132.018491 52.0
132.960026 33.0
133.021047 35.0
134.004692 14.0
134.094293 25.0
134.977188 158.0
135.040918 40.0
136.97282 35.0
139.052402 23.0
140.053427 15.0
141.067373 68.0
142.059269 23.0
143.069865 33.0
144.079361 26.0
146.092392 21.0
147.045938 29.0
148.049064 23.0
149.034079 11.0
149.0568 117.0
150.046345 53.0
151.053621 40.0
152.049767 38.0
152.059427 106.0
153.056453 32.0
153.064933 95.0
154.068899 57.0
155.063944 33.0
155.076135 40.0
156.07933 59.0
157.073456 18.0
157.090636 25.0
158.092922 22.0
161.060439 54.0
162.065275 33.0
163.036991 19.0
164.048007 30.0
165.069673 133.0
166.061698 21.0
167.073154 37.0
167.083284 33.0
168.07752 26.0
169.074706 40.0
170.077392 21.0
171.051017 14.0
175.03679 43.0
175.04846 54.0
176.046596 15.0
176.060876 17.0
177.054062 90.0
177.060592 207.0
177.086652 74.0

