>compound 
>formula C15H18O6
>parentmass 295.11761929756005
>ionization [M + H]+
>instrumentation Unknown (LCMS)
>source file:/Users/fanzhoukong/Documents/GitHub/Libgen/data/EAD_PFP/0_unknown_/spectrum.ms
>quality UNKNOWN

>ms2peaks
50.01665 170.0
51.024869 662.0
52.031127 76.0
53.040085 281.0
55.018002 12.0
55.053612 89.0
56.050981 14.0
56.964839 13.0
57.069879 171.0
57.935288 8.0
59.049356 562.0
60.984523 37.0
62.014711 64.0
63.02319 221.0
64.030408 35.0
65.040066 1223.0
66.045695 231.0
67.054213 115.0
68.025932 15.0
68.053412 8.0
68.99732 377.0
71.047427 6.0
72.935844 12.0
73.063894 7.0
74.016542 61.0
75.02286 61.0
76.030849 90.0
77.040407 1403.0
78.046236 380.0
79.055974 284.0
81.033191 224.0
83.083928 18.0
84.078926 5.0
85.066294 139.0
86.015813 12.0
87.023601 6.0
88.03082 13.0
89.040138 514.0
90.046836 164.0
91.054525 1289.0
92.052783 7.0
92.057483 85.0
92.994122 6.0
93.035692 35.0
93.063102 40.0
93.069712 35.0
94.04377 270.0
95.047728 16.0
95.063018 15.0
95.953357 9.0
96.082947 6.0
97.028215 7.0
97.066815 7.0
97.949024 5.0
99.994621 8.0
101.037649 25.0
102.045517 23.0
102.046507 152.0
103.055406 152.0
104.053274 16.0
104.062264 32.0
105.035863 13.0
105.055953 161.0
105.067992 134.0
106.045271 40.0
107.049369 421.0
108.072458 8.0
109.060506 8.0
109.096316 12.0
111.001583 20.0
111.038743 7.0
113.00455 19.0
113.02746 6.0
114.049368 6.0
115.054857 1390.0
116.060525 95.0
117.068463 658.0
119.05144 112.0
119.0664 78.0
119.07923 39.0
119.08457 40.0
120.019659 8.0
121.028437 499.0
122.037105 1164.0
123.043444 11.0
123.081474 14.0
125.057551 5.0
126.049849 38.0
126.902558 6.0
127.054887 298.0
128.062806 1213.0
129.070284 469.0
130.074983 230.0
130.992751 15.0
131.053301 13.0
131.069001 65.0
131.088071 146.0
132.01727 12.0
132.045409 11.0
133.032228 1920.0
134.037456 143.0
135.046475 37.0
137.060951 635.0
139.055678 30.0
140.050907 22.0
141.070635 179.0
142.080043 93.0
143.084852 236.0
144.08849 43.0
145.103909 1890.0
146.036457 406.0
147.046816 143.0
147.084826 13.0
147.107415 5.0
147.116905 14.0
147.968894 10.0
148.052314 9.0
149.024152 1343.0
150.032791 873.0
151.050839 41.0
152.063888 135.0
153.070596 151.0
154.076984 65.0
155.067173 36.0
155.078143 21.0
155.085473 92.0
156.076441 10.0
156.094791 29.0
157.06565 7.0
157.09018 54.0
157.10125 385.0
158.072738 37.0
158.096148 18.0
159.080596 13.0
159.094196 19.0
159.116436 142.0
160.048275 11.0
160.087935 41.0
161.027603 87.0
161.047483 71.0
161.059923 32.0
161.073593 35.0
161.084793 48.0
161.092233 32.0
162.031092 116.0
163.04022 789.0
164.047448 643.0
165.060297 507.0
166.061115 10.0
166.076265 28.0
167.083954 35.0
168.054052 8.0
168.084532 22.0
169.06515 11.0
169.09956 106.0
170.081859 24.0
170.097199 8.0
171.082397 482.0
172.089716 72.0
173.098704 375.0
174.033093 125.0
174.106762 8.0
175.111271 364.0
176.052369 19.0
177.020758 822.0
178.028386 1974.0
178.964175 8.0
179.048045 5.0
179.058545 8.0
179.088695 19.0
180.078523 16.0
180.989361 8.0
181.078991 14.0
181.092171 30.0
182.07034 8.0
182.08752 11.0
182.09942 8.0
183.084268 39.0
185.091255 18.0
185.099245 199.0
187.075682 23.0
187.094452 6.0
187.113212 42.0
188.08598 11.0
189.093599 1103.0
190.060697 9.0
190.094467 33.0
190.109307 5.0
191.034315 1328.0
192.041654 1017.0
192.407003 19.0
192.415173 22.0
193.055722 5190.0
194.071101 29.0
194.102481 13.0
196.113937 5.0
197.096036 14.0
199.073153 6.0
201.094859 170.0
202.078208 15.0
203.098856 18.0
203.107226 322.0
204.081485 6.0
205.049653 41.0
205.115593 9.0
207.03091 44.0
207.09576 8.0
208.113428 6.0
213.09336 122.0
215.111587 9.0
215.143187 7.0
216.982014 6.0
218.097442 6.0
219.101181 247.0
221.042708 6.0
221.118448 59.0
225.045501 9.0
229.087205 18.0
231.102162 335.0
233.082588 15.0
234.105197 9.0
235.048935 5.0
235.063955 160.0
240.081367 6.0
241.085736 17.0
242.986213 7.0
247.083566 6.0
247.095886 13.0
249.114173 747.0
250.96682 8.0
259.098447 19.0
259.128407 19.0
265.018268 13.0
267.004254 7.0
277.104118 8.0
277.126948 25.0
277.141628 17.0
279.079155 7.0
281.054672 41.0
282.05077 11.0
283.055249 8.0
293.102543 7.0
294.139921 7.0
295.12192 3194.0

