>compound 
>formula C28H26N2O10
>parentmass 551.16602604254
>ionization [M + H]+
>instrumentation Unknown (LCMS)
>source file:/Users/fanzhoukong/Documents/GitHub/Libgen/data/EAD_PFP/0_unknown_/spectrum.ms
>quality UNKNOWN

>ms2peaks
50.017225 105.0
51.023342 249.0
52.02817 24.0
53.038517 85.0
54.034815 40.0
55.054923 157.0
56.05009 36.0
57.069718 29.0
57.934376 6.0
58.067175 77.0
59.070263 5.0
60.982808 26.0
62.015296 36.0
63.023783 183.0
64.023941 15.0
64.030991 15.0
65.039869 829.0
66.046286 32.0
67.054004 265.0
68.049961 125.0
68.994659 164.0
70.065547 423.0
72.93728 7.0
74.015457 16.0
75.003945 10.0
75.012435 5.0
75.025155 25.0
76.031452 51.0
77.03929 740.0
78.041647 69.0
79.055715 242.0
80.052653 101.0
81.05937 45.0
81.06819 92.0
82.066168 37.0
83.072925 7.0
84.083123 58.0
85.008191 6.0
86.016428 9.0
87.023296 15.0
88.029593 6.0
89.039821 134.0
90.046519 21.0
91.057006 915.0
92.055274 95.0
93.035361 11.0
93.042921 15.0
93.069381 7.0
94.066239 113.0
95.061717 6.0
95.082736 27.0
95.953014 11.0
96.081644 486.0
97.072262 6.0
97.95158 6.0
99.992295 17.0
101.037282 15.0
102.04713 61.0
103.052047 90.0
104.052895 15.0
105.070632 70.0
106.06809 47.0
107.047968 6.0
107.086488 8.0
108.082245 12.0
109.088753 8.0
110.057791 8.0
111.001178 7.0
111.090988 16.0
112.999973 25.0
113.108293 104.0
114.092891 424.0
115.054429 498.0
116.049546 10.0
116.057996 48.0
117.059554 44.0
118.067541 35.0
119.057409 8.0
119.083069 15.0
120.070726 5.0
120.083616 23.0
121.030144 495.0
122.098342 7.0
125.000135 7.0
126.048282 23.0
126.90098 6.0
127.05442 93.0
128.063467 213.0
129.065355 38.0
130.065562 89.0
130.99339 38.0
131.06626 20.0
131.08196 5.0
132.043798 5.0
132.079808 9.0
133.079195 7.0
134.094823 5.0
135.09151 7.0
137.024886 12.0
139.056321 19.0
140.053868 7.0
141.064296 15.0
141.923094 8.0
142.066684 6.0
142.074854 19.0
143.072601 26.0
143.085491 14.0
144.078559 27.0
145.969624 15.0
146.080904 5.0
147.094972 8.0
147.96596 21.0
148.107789 5.0
150.045435 21.0
151.055092 59.0
152.0597 94.0
153.070027 60.0
154.069125 47.0
155.061722 10.0
155.070262 20.0
155.082452 10.0
156.06607 8.0
156.0783 48.0
157.082238 15.0
157.092068 30.0
158.093095 16.0
159.092363 16.0
159.115843 13.0
160.07495 7.0
160.08487 10.0
160.10967 14.0
161.110308 7.0
162.055436 11.0
162.998333 13.0
163.033353 10.0
163.053373 24.0
164.050601 8.0
165.070998 126.0
166.070586 29.0
167.073214 43.0
167.083324 45.0
168.055961 10.0
168.075021 22.0
169.081099 13.0
170.069736 9.0
170.094016 10.0
171.103554 15.0
172.077522 7.0
173.080019 8.0
173.114819 6.0
174.089327 6.0
175.061364 8.0
176.062112 20.0
177.06312 5.0
178.066947 11.0
178.077397 43.0
179.074925 17.0
179.085405 24.0
180.066042 6.0
180.081802 19.0
180.99002 11.0
181.07701 11.0
182.089498 16.0
182.192617 10.0
183.033225 7.0
183.087565 7.0
184.096353 5.0
187.041506 14.0
188.108113 7.0
189.018821 6.0
189.070001 30.0
190.064048 15.0
190.076188 11.0
190.999776 35.0
191.068816 9.0
192.072174 9.0
192.088474 9.0
192.156353 5.0
192.982881 36.0
193.076791 6.0
193.089051 13.0
193.980309 11.0
194.092209 7.0
195.118506 11.0
196.117334 8.0
198.126759 8.0
199.040637 18.0
199.120807 6.0
200.048044 6.0
201.070502 5.0
202.07468 7.0
203.082757 17.0
203.145577 8.0
204.086335 8.0
205.161152 9.0
206.08404 14.0
206.10373 7.0
207.031578 79.0
208.030725 14.0
208.071705 5.0
209.029453 7.0
209.103113 5.0
210.10297 6.0
210.992798 10.0
212.995353 11.0
213.105463 7.0
215.084948 19.0
215.115118 7.0
216.083146 11.0
216.100436 51.0
217.090894 21.0
219.094569 6.0
221.088504 8.0
222.087412 8.0
222.88083 8.0
225.028534 7.0
225.124054 6.0
227.04037 6.0
228.042237 7.0
228.092547 5.0
230.094242 10.0
231.11325 13.0
232.094218 6.0
233.129615 2113.0
234.117853 8.0
234.973001 5.0
238.085633 6.0
239.079751 9.0
240.078988 6.0
242.989911 14.0
243.102931 6.0
244.035539 6.0
248.087699 7.0
248.988057 19.0
250.973672 10.0
251.004722 5.0
251.144422 7.0
254.015305 6.0
255.029602 23.0
262.164035 6.0
265.020498 37.0
266.016566 6.0
267.000114 14.0
268.003101 5.0
268.999919 6.0
272.030582 14.0
273.036499 9.0
279.156755 6.0
281.04875 104.0
282.049788 16.0
282.280167 5.0
283.026225 61.0
285.12974 6.0
295.063676 29.0
295.316146 8.0
296.106214 5.0
296.333813 32.0
297.332981 32.0
301.033602 12.0
313.321042 5.0
318.034321 6.0
327.087949 21.0
374.116097 6.0
385.14427 8.0
387.155915 5.0
395.124406 8.0
396.098644 14.0
413.126773 10.0
413.134743 74.0
414.11893 39.0
431.14562 103.0
437.365755 5.0
447.128461 6.0
494.743487 6.0
505.158662 65.0
510.24425 6.0
515.277498 6.0
533.157395 59.0
534.144032 19.0
535.598559 28.0
547.59004 11.0
548.615188 20.0
549.616105 77.0
550.627083 71.0
551.167361 2016.0
551.62977 250.0

