>compound 
>formula C10H12N4O5
>parentmass 269.088
>ionization [M + H]+
>instrumentation Unknown (LCMS)
>source file:/Users/fanzhoukong/Documents/GitHub/Libgen/data/NIST_MONA/0_unknown_/spectrum.ms
>quality UNKNOWN

>ms2peaks
49.0526 0.268439
53.0386 0.332353
55.0174 2.9017
57.033 4.934168
59.049 0.843666
61.028 1.380545
65.0136 0.230091
69.0327 6.493673
71.0127 3.31075
73.028 3.259619
75.031 0.40905
82.0401 2.761089
83.0236 0.651924
85.0281 3.195705
92.0251 0.8181
94.0399 13.10239
95.0243 0.31957
95.0346 0.383485
100.0759 0.230091
103.0396 0.255656
110.0349 14.201713
115.0384 0.984277
117.0303 0.332353
119.0352 5.39435
128.0456 0.268439
136.0612 0.49853
137.0453 100.0
137.9917 0.600793
138.0304 0.49853
138.0489 6.557587
139.0461 0.421833
175.034 0.268439
224.9889 0.357919

