>compound 
>formula C22H30O5
>parentmass 375.2166
>ionization [M + H]+
>instrumentation Unknown (LCMS)
>source file:/Users/fanzhoukong/Documents/GitHub/Libgen/data/NIST_MONA/0_unknown_/spectrum.ms
>quality UNKNOWN

>ms2peaks
81.0699 4.357819
93.0701 5.723144
95.0856 3.907462
97.0648 2.395602
99.044 2.348571
107.0857 6.06441
109.0648 3.873257
109.1012 5.596173
119.0857 3.11817
121.0648 19.300987
123.0803 2.869151
131.0857 4.091699
133.1011 5.831458
135.0805 62.820877
137.0959 3.360839
143.0864 2.710956
145.0648 2.452869
145.101 6.601316
147.0805 11.517547
149.0962 9.027365
159.0804 14.11721
161.0962 100.0
165.0913 5.365812
173.0965 16.25602
175.1119 9.69746
177.0912 5.732861
185.0962 56.776419
187.1117 44.056017
189.0908 5.47892
197.0964 2.488239
199.1119 8.035179
201.1277 3.212102
209.0964 3.207697
211.112 27.899242
213.1274 14.478299
223.1116 3.680339
225.1278 11.895221
227.1434 6.127119
235.1124 6.204856
237.1276 22.81173
239.1432 9.844901
249.1278 5.64165
251.1432 28.239343
253.1588 67.294395
255.1747 7.037421
261.1279 7.716067
263.1432 9.169883
265.1588 6.507254
267.1381 8.012376
277.1593 16.458266
279.1383 9.889341
279.1741 26.895784
280.1822 21.955454
281.1906 8.824989
288.152 5.673004
291.1748 8.331876
293.1906 14.764761
297.1483 6.553637
297.1859 2.828469
303.1745 22.987675
309.1851 8.763188
321.1851 22.027231
339.1956 17.438403
357.2061 21.063678

