>compound 
>formula C15H26O
>parentmass 245.18758645755
>ionization [M + Na]+
>instrumentation Unknown (LCMS)
>source file:/Users/fanzhoukong/Documents/GitHub/Libgen/data/EAD_PFP/0_unknown_/spectrum.ms
>quality UNKNOWN

>ms2peaks
50.016022 100.0
51.023543 225.0
52.028394 41.0
53.038036 73.0
55.017398 180.0
55.036288 125.0
55.055918 46.0
56.05038 25.0
56.964241 22.0
57.037461 29.0
57.069271 18.0
58.064502 27.0
60.983166 51.0
62.014898 26.0
63.021839 100.0
65.039502 545.0
66.039553 26.0
67.055254 162.0
68.993517 76.0
69.034207 66.0
70.062758 279.0
71.049359 37.0
72.043691 23.0
72.936132 18.0
73.035732 15.0
74.015163 33.0
75.018935 41.0
76.032026 39.0
77.039017 774.0
78.042249 72.0
79.05372 307.0
80.047151 55.0
81.067953 83.0
82.065054 23.0
83.047705 47.0
84.956508 29.0
85.816459 19.0
86.104379 1883.0
89.031333 28.0
89.038723 156.0
90.042635 40.0
91.055916 918.0
92.056067 95.0
93.070189 95.0
94.06326 56.0
95.070191 54.0
95.084521 48.0
95.953862 24.0
97.060574 53.0
97.949545 33.0
98.064955 27.0
99.082297 15.0
102.04607 57.0
103.052982 77.0
104.051843 32.0
105.070584 146.0
106.069066 36.0
106.075116 29.0
107.084427 80.0
108.077128 19.0
109.06419 25.0
109.07749 44.0
110.057781 26.0
111.012522 31.0
111.049692 28.0
113.002065 68.0
113.028105 30.0
114.005036 26.0
114.037456 15.0
115.053408 383.0
116.059079 37.0
117.0543 33.0
117.06171 103.0
118.061212 38.0
119.052123 21.0
119.072433 48.0
119.083123 49.0
120.079384 172.0
121.088416 96.0
121.099196 40.0
123.044158 42.0
123.078938 28.0
125.065961 16.0
125.074721 57.0
126.047292 16.0
127.037973 33.0
127.052334 83.0
128.062475 251.0
129.061026 67.0
130.065697 65.0
130.989039 23.0
131.050729 33.0
131.065299 53.0
131.085489 55.0
132.01806 13.0
132.10361 189.0
133.064661 13.0
133.099692 14.0
134.037133 16.0
135.097374 43.0
139.076159 26.0
140.108571 14.0
141.064522 59.0
141.069152 108.0
142.063393 12.0
142.076233 39.0
143.086895 25.0
144.079966 41.0
145.077657 44.0
145.096537 70.0
145.969879 24.0
147.08929 28.0
149.072923 19.0
149.098033 55.0
151.062605 35.0
151.077055 32.0
152.064807 91.0
153.066698 129.0
154.074299 178.0
155.049831 13.0
155.077891 65.0
155.082771 49.0
156.067602 22.0
156.078622 27.0
157.102213 75.0
158.074945 25.0
158.104515 30.0
159.084056 30.0
160.062907 12.0
161.099459 66.0
162.994951 17.0
163.112541 84.0
164.059752 24.0
165.075174 152.0
166.070995 52.0
167.073596 48.0
168.065258 25.0
168.081768 28.0
169.071319 55.0
169.094229 41.0
170.08932 33.0
171.087312 17.0
171.114222 43.0
172.112643 42.0
173.094634 46.0
173.121704 15.0
174.114326 23.0
174.964617 18.0
175.113647 21.0
176.059968 19.0
176.148368 12.0
177.06618 15.0
178.079171 46.0
179.078012 31.0
180.080974 25.0
181.097275 47.0
182.082056 22.0
183.090708 26.0
183.107958 19.0
184.084899 21.0
185.0911 22.0
186.089332 15.0
187.071503 16.0
187.099643 28.0
189.067865 30.0
189.150036 15.0
190.994908 30.0
191.086988 41.0
191.105938 59.0
192.051009 17.0
192.11212 16.0
192.983441 63.0
193.086881 24.0
195.094463 22.0
197.076666 16.0
198.062567 14.0
199.090989 28.0
199.104819 96.0
199.180849 23.0
200.05836 18.0
201.076681 17.0
202.082273 37.0
203.084784 19.0
203.144814 34.0
205.158977 12.0
207.022349 43.0
207.032229 64.0
208.037031 18.0
209.037202 22.0
209.105192 30.0
212.991767 11.0
215.08422 27.0
217.136363 54.0
224.996973 38.0
227.063286 22.0
227.088386 30.0
227.110526 26.0
227.122336 21.0
228.173227 14.0
229.101988 21.0
232.080112 22.0
245.12877 190.0

