>compound 
>formula C6H13NO4S
>parentmass 196.063812255859
>ionization [M + H]+
>instrumentation Unknown (LCMS)
>source file:/Users/fanzhoukong/Documents/GitHub/Libgen/data/NIST_MONA/0_unknown_/spectrum.ms
>quality UNKNOWN

>ms2peaks
41.03801 4.211675
42.03328 13.75522
43.01716 3.160679
44.02051 1.108659
45.03291 8.401055
46.06441 14.8239
56.04935 24.36206
57.05206 11.71012
57.06972 5.281124
60.04424 8.927707
65.03857 2.921571
69.06944 1.140182
70.0649 40.01707
71.08542 3.971799
72.0892 10.65066
84.08225 3.928744
86.06117 9.108382
86.09677 1.274728
88.07568 1.711426
93.03419 2.139667
100.0759 100.0
100.1127 1.236286
101.0747 5.160418
108.012 1.514604
114.0917 15.58966
149.0239 16.90744
150.0277 1.054841
152.0372 1.922855
196.0645 45.95324
197.068 3.776515
198.0616 2.17042
218.0469 92.5769
234.0205 57.48115

