>compound 
>formula C15H14O6
>parentmass 291.0863
>ionization [M + H]+
>instrumentation Unknown (LCMS)
>source file:/Users/fanzhoukong/Documents/GitHub/Libgen/data/NIST_MONA/0_unknown_/spectrum.ms
>quality UNKNOWN

>ms2peaks
64.0183 0.105317
68.9971 0.108714
81.021 0.105317
94.0251 0.115509
97.0609 0.142687
101.0103 0.268388
103.0545 0.105317
113.0315 0.101919
116.0258 0.118906
123.0436 3.060982
124.0468 0.32954
133.0405 0.108714
135.0523 0.112111
137.003 0.142687
139.0384 6.702905
139.9754 0.214031
140.042 0.441651
140.0913 0.105317
147.0429 0.910481
148.0055 0.101919
148.0513 0.169866
151.0389 1.104128
152.0777 0.108714
153.0536 0.407678
154.0369 0.105317
163.0381 0.509597
163.0482 0.156277
165.0542 9.55665
166.058 0.862918
168.0748 0.118906
169.0491 0.509597
175.9752 0.163071
181.0251 0.101919
181.0489 0.231017
182.106 0.112111
185.0975 0.112111
188.0663 0.108714
203.0216 0.169866
203.0686 0.156277
205.0524 0.112111
207.0635 0.373705
211.9972 0.159674
224.981 0.108714
228.0766 0.108714
231.0624 0.193647
237.0525 0.129098
243.0654 0.149482
243.9761 0.125701
244.9846 0.108714
245.0454 0.112111
248.9902 0.129098
249.0413 0.122303
249.0773 0.394089
250.0731 0.108714
257.0191 0.112111
259.0609 0.146085
264.9875 0.112111
272.9919 0.156277
273.0761 2.989638
274.0797 0.560557
281.0681 0.173263
289.0707 3.74724
290.0759 0.553763
291.0862 100.0
293.0914 1.287583

