>compound 
>formula C25H28O11
>parentmass 505.1704427177101
>ionization [M + H]+
>instrumentation Unknown (LCMS)
>source file:/Users/fanzhoukong/Documents/GitHub/Libgen/data/EAD_PFP/0_unknown_/spectrum.ms
>quality UNKNOWN

>ms2peaks
50.014284 397.0
51.023185 1622.0
52.030865 148.0
53.038396 205.0
54.035426 14.0
55.018497 47.0
55.052647 108.0
56.051477 22.0
57.032658 37.0
57.069648 11.0
57.931338 6.0
59.930149 8.0
60.9828 28.0
62.01453 83.0
63.022241 222.0
64.030241 25.0
65.041502 959.0
66.044752 63.0
67.052473 201.0
68.023383 18.0
68.995574 90.0
69.033824 5.0
70.064014 7.0
71.013475 135.0
74.014776 96.0
75.013457 7.0
75.021937 127.0
76.029927 315.0
76.790338 8.0
77.039488 913.0
77.042928 1879.0
79.054199 939.0
80.052889 39.0
81.06844 203.0
82.06643 19.0
83.049091 8.0
83.085701 14.0
85.030162 12.0
86.016732 21.0
87.023613 12.0
88.029923 9.0
89.037394 246.0
90.045944 51.0
91.056445 1879.0
92.058475 186.0
93.067886 773.0
94.054296 17.0
95.049717 52.0
95.950567 7.0
96.082067 11.0
97.029268 21.0
99.010709 80.0
99.991789 15.0
101.03777 15.0
102.04663 608.0
103.057521 1793.0
104.050411 22.0
104.061401 65.0
105.044042 7.0
105.066132 176.0
105.068142 688.0
106.056522 20.0
106.066612 22.0
107.049533 174.0
108.081793 14.0
108.089933 6.0
109.062724 11.0
110.998665 15.0
112.999546 21.0
114.032836 5.0
114.043296 5.0
115.052957 381.0
116.059687 74.0
117.068688 94.0
118.038408 7.0
118.067148 23.0
119.049539 129.0
120.059609 52.0
121.06533 1524.0
123.076301 10.0
123.088261 7.0
125.024961 24.0
126.043532 28.0
127.052972 74.0
128.062013 261.0
129.050553 7.0
129.066133 104.0
130.045114 8.0
130.057414 20.0
130.065234 80.0
131.051364 2625.0
132.056995 19.0
132.080625 25.0
133.060795 14.0
133.067585 83.0
133.092455 7.0
134.034396 16.0
134.060466 10.0
134.093366 6.0
135.044536 43.0
137.056707 5.0
139.054868 47.0
140.048949 18.0
141.051229 25.0
141.066349 59.0
141.92283 6.0
142.06641 24.0
142.07575 34.0
143.0618 11.0
143.07235 24.0
144.079491 32.0
145.071261 24.0
145.083061 9.0
145.968202 15.0
146.096042 9.0
147.044832 263.0
148.051533 23.0
149.061653 2204.0
150.045224 8.0
151.057294 22.0
152.060675 40.0
153.066205 30.0
154.066496 12.0
155.059096 15.0
155.082266 16.0
156.079337 13.0
157.071007 8.0
157.099257 9.0
158.068298 6.0
158.096618 7.0
159.046478 948.0
161.061639 11.0
161.092729 6.0
162.03033 14.0
163.05197 9.0
164.061751 20.0
165.070881 169.0
166.055312 6.0
166.074252 48.0
167.069272 143.0
168.060933 16.0
168.077443 27.0
169.073333 30.0
169.096273 14.0
170.095174 9.0
171.076544 7.0
171.085494 10.0
171.102164 13.0
172.090255 7.0
172.109545 11.0
173.050285 14.0
173.130195 8.0
175.037956 343.0
176.045137 8.0
176.059437 48.0
177.055217 3901.0
178.078638 246.0
179.056498 17.0
179.066988 11.0
179.085338 47.0
180.081729 23.0
181.065089 19.0
181.078269 18.0
181.103329 16.0
182.07095 10.0
182.09605 9.0
183.0398 8.0
183.10078 8.0
184.102961 8.0
185.035901 7.0
185.061231 5.0
185.121191 6.0
186.100812 5.0
186.128882 7.0
187.052192 8.0
187.147332 8.0
188.063783 8.0
189.067283 110.0
190.076204 61.0
190.999764 7.0
191.085064 67.0
192.073535 7.0
192.092525 22.0
192.988325 16.0
193.099925 192.0
195.067906 390.0
196.111867 6.0
198.092318 10.0
200.095199 11.0
200.115989 5.0
201.055269 13.0
201.063619 12.0
201.163619 8.0
202.07611 62.0
203.07444 10.0
203.08281 56.0
203.13726 14.0
204.080801 13.0
204.091981 25.0
205.078431 5.0
205.088251 10.0
205.102281 49.0
206.100992 8.0
207.033052 45.0
208.032213 11.0
208.087313 7.0
209.011133 7.0
209.097523 11.0
210.124364 12.0
214.067656 6.0
215.085066 60.0
216.089027 12.0
217.065047 11.0
217.092467 13.0
217.102577 12.0
217.122787 8.0
218.076538 19.0
218.093888 21.0
219.077308 34.0
219.104858 15.0
220.089089 6.0
221.107589 11.0
221.113419 10.0
222.12843 6.0
223.11212 6.0
225.041911 6.0
226.079152 13.0
227.126162 8.0
228.079413 6.0
229.046513 6.0
230.086994 6.0
231.080674 15.0
233.095415 108.0
233.107375 13.0
234.112045 8.0
234.127046 6.0
235.111376 17.0
237.087757 24.0
239.089068 11.0
240.080738 8.0
242.98406 12.0
244.10772 5.0
245.115851 9.0
247.055232 5.0
248.138862 8.0
248.985243 11.0
250.167603 6.0
251.104334 15.0
257.080277 5.0
259.071058 6.0
261.090079 123.0
263.10265 18.0
263.1646 6.0
265.017661 14.0
266.018511 6.0
267.003652 12.0
268.977803 6.0
272.173184 9.0
275.091636 24.0
277.085627 6.0
279.103148 123.0
281.049159 44.0
282.051849 16.0
283.04645 12.0
289.085693 62.0
291.191504 5.0
292.198704 8.0
293.103675 46.0
297.107147 10.0
298.131317 6.0
300.067788 6.0
303.0789 8.0
307.094762 86.0
309.035993 5.0
310.209853 6.0
321.099539 70.0
324.03069 6.0
325.094901 10.0
325.112571 462.0
337.031396 6.0
339.109977 30.0
343.153839 8.0
350.144803 6.0
357.117376 6.0
390.235373 6.0
405.31991 10.0
423.330819 12.0
431.437603 3.0
451.321613 18.0
452.275294 6.0
459.235197 7.0
459.335987 7.0
461.208578 6.0
461.764128 3.0
469.333192 47.0
470.246212 5.0
473.229214 7.0
487.217021 8.0
487.253791 6.0
487.288401 9.0
487.312171 15.0
505.20403 16.0
505.22826 146.0
505.25246 84.0
505.2679 72.0
505.27669 70.0
505.30092 25.0

