>compound 
>formula C27H22O12
>parentmass 539.1184071439001
>ionization [M + H]+
>instrumentation Unknown (LCMS)
>source file:/Users/fanzhoukong/Documents/GitHub/Libgen/data/EAD_PFP/0_unknown_/spectrum.ms
>quality UNKNOWN

>ms2peaks
51.022333 81.0
52.030692 20.0
53.03964 95.0
55.051708 30.0
55.056068 54.0
57.073105 21.0
58.028794 7.0
60.98325 7.0
62.017288 25.0
63.023457 151.0
64.023605 23.0
65.037174 30.0
65.039544 760.0
66.044363 129.0
67.054471 47.0
68.996769 110.0
74.012572 24.0
75.02395 25.0
76.031099 54.0
77.038927 712.0
78.045616 95.0
79.054475 157.0
80.053163 65.0
81.068702 43.0
82.040951 24.0
83.084159 12.0
87.016514 32.0
89.036661 69.0
89.039431 186.0
91.052878 958.0
92.060527 90.0
94.067744 39.0
95.957411 7.0
99.993846 33.0
102.046713 44.0
103.054612 123.0
105.063179 60.0
107.048556 46.0
108.082835 7.0
110.999711 11.0
113.001618 48.0
114.049547 13.0
115.055035 288.0
116.058594 72.0
117.069702 94.0
118.063901 37.0
119.06551 29.0
119.08368 27.0
120.072418 14.0
121.079257 33.0
123.042524 18.0
123.994073 15.0
126.04011 28.0
127.056159 74.0
128.060757 123.0
129.072666 48.0
130.068445 42.0
131.047843 98.0
131.065783 30.0
132.020802 25.0
133.09905 18.0
135.043208 13.0
137.024395 95.0
139.046582 63.0
140.049891 39.0
141.070779 49.0
143.075607 14.0
145.969103 20.0
147.093261 18.0
147.96424 36.0
150.042507 17.0
150.047307 55.0
151.055766 142.0
152.065194 174.0
153.067063 53.0
154.068592 62.0
155.05753 43.0
155.08679 30.0
156.083879 18.0
157.091517 19.0
158.098706 32.0
159.042405 43.0
159.069575 52.0
160.088033 12.0
161.040112 28.0
162.044901 29.0
163.045289 31.0
163.052819 129.0
164.060078 86.0
165.069187 452.0
166.068755 64.0
167.071364 40.0
167.080234 62.0
168.060472 23.0
168.064282 58.0
169.074151 36.0
170.0896 29.0
171.064528 21.0
172.082067 9.0
172.123197 8.0
174.046074 36.0
175.051703 27.0
176.062821 225.0
177.05469 27.0
177.07033 72.0
178.079419 79.0
179.032377 35.0
179.073017 35.0
180.041766 20.0
181.048715 120.0
182.070383 27.0
182.104743 39.0
183.081662 18.0
184.06783 16.0
185.028659 8.0
186.066828 20.0
187.040886 226.0
189.073424 46.0
190.067472 14.0
190.996431 34.0
192.009089 23.0
192.078339 36.0
192.984968 40.0
193.062538 25.0
194.077917 31.0
195.090505 25.0
196.057704 16.0
197.060293 49.0
198.110951 8.0
202.079606 36.0
203.034634 27.0
204.050683 40.0
205.066472 136.0
206.07635 18.0
207.032309 88.0
208.034287 20.0
209.035866 13.0
209.058516 30.0
211.071813 35.0
212.083512 17.0
213.024701 29.0
215.087128 26.0
216.081036 16.0
217.084435 19.0
219.064872 24.0
220.053381 36.0
221.05867 245.0
222.067718 31.0
222.124668 16.0
223.077587 341.0
224.073635 15.0
225.054254 86.0
226.060593 36.0
229.091579 24.0
231.029136 23.0
233.051103 31.0
233.060073 167.0
234.069142 24.0
235.06688 8.0
237.056618 26.0
238.063716 39.0
239.071415 51.0
242.975419 29.0
244.105178 10.0
245.079557 17.0
249.049111 93.0
249.056851 286.0
250.0612 41.0
251.070688 264.0
253.052116 167.0
254.056674 15.0
255.069493 22.0
255.222823 8.0
258.118449 8.0
260.040536 16.0
261.052525 80.0
265.019689 35.0
266.057288 30.0
267.061706 137.0
268.074435 69.0
269.077814 48.0
271.057981 14.0
275.072525 8.0
277.051743 182.0
278.057081 36.0
279.06587 478.0
281.049537 178.0
282.052226 113.0
283.051734 127.0
284.054693 60.0
285.074282 52.0
293.041931 14.0
294.048979 26.0
295.061088 448.0
296.068226 27.0
297.077075 135.0
309.091339 8.0
312.062464 41.0
313.075653 182.0
323.054699 69.0
326.975354 12.0
327.959233 23.0
328.969431 20.0
329.96876 8.0
339.034327 10.0
341.066615 641.0
343.012412 15.0
344.012831 14.0
351.144601 8.0
355.059965 13.0
366.23485 8.0
402.038751 8.0
409.184621 8.0
410.19985 17.0
414.315134 8.0
417.03739 44.0
418.034249 51.0
456.809156 14.0
457.238475 15.0
477.280017 19.0
480.059824 8.0
490.09231 8.0
492.100397 16.0
493.115746 49.0
493.150566 8.0
506.111028 86.0
521.111897 8.0
522.152296 41.0
539.166862 28.0
539.196462 54.0
539.244252 46.0
539.278372 56.0

