>compound 
>formula C19H22O4
>parentmass 337.14103018734005
>ionization [M + Na]+
>instrumentation Unknown (LCMS)
>source file:/Users/fanzhoukong/Documents/GitHub/Libgen/data/EAD_PFP/0_unknown_/spectrum.ms
>quality UNKNOWN

>ms2peaks
50.014634 71.0
51.022144 308.0
52.026275 43.0
53.039475 76.0
55.050125 16.0
55.051575 148.0
56.048935 18.0
56.963525 17.0
57.033045 29.0
57.068565 20.0
57.931735 13.0
59.048795 17.0
60.984745 30.0
61.005405 15.0
62.015715 14.0
63.021115 164.0
64.026745 29.0
65.038765 764.0
66.041205 118.0
67.055325 143.0
68.993585 161.0
70.068565 29.0
73.028275 12.0
74.014405 44.0
75.014775 30.0
76.021875 27.0
76.030415 19.0
77.035675 570.0
78.039755 51.0
78.043215 230.0
79.051205 252.0
80.051635 41.0
81.068945 115.0
83.056745 48.0
87.021405 36.0
88.029535 24.0
89.036085 223.0
90.042765 30.0
91.056055 1607.0
92.059025 124.0
93.066546 120.0
94.063396 45.0
95.084666 66.0
95.951126 17.0
97.062656 15.0
101.029486 23.0
102.044246 44.0
103.051156 106.0
104.050006 33.0
105.068736 246.0
106.061156 76.0
107.052166 39.0
107.082576 41.0
109.100176 74.0
110.998256 50.0
111.045736 24.0
112.994966 42.0
113.998946 26.0
115.052546 312.0
116.052936 50.0
116.058216 33.0
117.059786 82.0
118.057146 26.0
119.067286 42.0
119.083316 49.0
120.086026 24.0
121.028256 26.0
121.100476 28.0
123.067186 28.0
125.095746 26.0
126.046396 33.0
127.037086 14.0
127.054746 102.0
128.061576 307.0
129.066806 60.0
130.062566 62.0
130.990396 30.0
131.039706 29.0
131.084566 51.0
132.016026 24.0
132.061056 34.0
133.073916 36.0
133.105566 32.0
134.095187 13.0
135.112407 25.0
137.028757 28.0
139.052127 43.0
141.064747 65.0
142.063637 22.0
142.092827 35.0
143.078937 55.0
144.079027 56.0
145.076717 20.0
145.102687 24.0
146.074287 16.0
147.087167 24.0
147.959307 23.0
149.092307 42.0
150.026767 18.0
150.047167 33.0
151.047197 21.0
152.061437 175.0
153.066947 52.0
153.089977 31.0
154.068477 76.0
155.063517 40.0
155.075707 27.0
156.076427 28.0
156.083777 79.0
157.063197 42.0
157.076677 30.0
157.101247 28.0
158.076457 19.0
159.065787 29.0
159.095437 25.0
159.112737 23.0
161.064897 33.0
161.100977 27.0
161.133287 17.0
163.040247 44.0
163.059007 43.0
164.051247 33.0
164.063787 40.0
165.067897 177.0
166.064947 33.0
166.078837 22.0
167.052347 49.0
167.073877 60.0
168.060457 32.0
168.078237 41.0
169.048667 18.0
169.065227 23.0
169.083057 33.0
170.070427 28.0
170.094707 27.0
171.087587 33.0
171.109377 32.0
172.048667 14.0
172.082087 14.0
173.079447 21.0
173.132297 19.0
175.145058 42.0
176.058948 44.0
176.062858 77.0
177.074288 17.0
178.078158 80.0
179.073048 42.0
180.068118 45.0
180.077328 33.0
181.018468 48.0
181.051418 35.0
181.075138 31.0
182.074428 23.0
183.076438 22.0
184.051968 14.0
185.062068 20.0
185.096718 22.0
186.066918 25.0
187.061088 27.0
187.090568 25.0
189.069498 255.0
190.075688 83.0
191.001978 19.0
191.068318 47.0
191.083218 98.0
192.983738 57.0
193.085818 34.0
193.107608 19.0
194.095818 16.0
195.111178 28.0
197.042598 36.0
198.067008 17.0
199.055378 16.0
199.076098 30.0
200.058658 20.0
201.072818 40.0
201.085338 76.0
201.108958 42.0
202.075618 231.0
203.082298 88.0
204.071888 15.0
205.058278 37.0
205.084938 39.0
207.031138 53.0
207.060738 27.0
208.033118 18.0
208.054318 23.0
208.089638 28.0
209.077168 17.0
211.063548 15.0
213.062138 36.0
213.095038 18.0
215.078809 73.0
216.097159 36.0
217.090509 28.0
218.071659 67.0
219.081139 120.0
220.091489 22.0
221.063359 26.0
221.152229 29.0
222.084119 15.0
223.096959 27.0
225.035519 21.0
225.039929 42.0
225.119289 17.0
227.053289 21.0
228.074459 12.0
229.083059 31.0
230.061199 25.0
230.074559 30.0
231.083119 138.0
231.130779 18.0
232.086419 36.0
233.084409 37.0
233.094869 34.0
233.148739 50.0
234.098029 19.0
235.071789 21.0
235.098829 30.0
236.082189 24.0
237.112859 17.0
239.073369 16.0
240.130289 28.0
241.121069 28.0
242.985039 26.0
243.050709 17.0
243.078199 26.0
244.088819 27.0
245.095379 81.0
246.087119 34.0
246.100949 59.0
247.074719 88.0
248.082769 48.0
249.049619 18.0
249.083629 38.0
249.117649 20.0
251.106899 21.0
255.084119 22.0
255.099759 29.0
257.06716 19.0
258.06707 35.0
259.07208 74.0
260.07903 54.0
261.08792 49.0
262.08929 53.0
262.09722 47.0
263.08459 35.0
263.10366 93.0
264.07702 41.0
265.01711 31.0
265.08248 36.0
265.12078 15.0
267.00631 26.0
269.06881 18.0
271.04409 20.0
271.18444 30.0
273.08975 149.0
274.10085 196.0
275.07809 45.0
275.08944 76.0
275.10894 115.0
276.07495 47.0
276.11239 26.0
277.11602 87.0
277.12744 110.0
279.10256 68.0
281.05352 72.0
282.09075 17.0
283.09365 36.0
284.10659 20.0
287.08819 13.0
288.11154 31.0
289.05679 28.0
289.08843 36.0
289.10177 39.0
290.087 27.0
290.09368 199.0
291.10067 275.0
292.07256 26.0
293.08462 29.0
293.11483 33.0
293.16012 30.0
301.132141 34.0
301.195031 25.0
302.123991 22.0
303.155051 20.0
304.105831 31.0
304.128051 30.0
305.118011 664.0
306.126731 701.0
307.101041 174.0
308.099271 17.0
309.133571 40.0
319.090361 34.0
319.141111 122.0
319.151611 125.0
319.193631 90.0
319.205871 40.0
321.116481 83.0
322.124901 221.0
336.130371 16.0
337.149471 1415.0

