>compound 
>formula C20H28O
>parentmass 285.2213
>ionization [M + H]+
>instrumentation Unknown (LCMS)
>source file:/Users/fanzhoukong/Documents/GitHub/Libgen/data/NIST_MONA/0_unknown_/spectrum.ms
>quality UNKNOWN

>ms2peaks
59.049 3.437816
64.0313 3.538928
73.0031 2.022245
75.211 2.022245
83.0852 10.717897
95.0497 1.82002
95.0856 27.906977
96.0901 3.943377
104.0824 2.73003
106.0776 2.527806
107.0502 2.022245
107.085 12.23458
109.0656 13.650152
109.1005 10.313448
115.0297 2.73003
119.085 16.380182
120.0886 4.853387
123.1157 7.178969
124.1214 2.831143
127.2059 3.538928
129.0779 1.921132
133.1001 13.953488
134.104 2.123357
145.1001 6.673407
146.1089 5.156724
147.1154 8.695652
155.0805 2.426694
156.0944 4.954499
157.0981 3.842265
159.1167 10.717897
160.0899 2.527806
160.1242 3.134479
161.0958 65.925177
161.1285 9.908999
161.1547 3.336704
163.0616 4.550051
163.1103 3.336704
163.1486 2.527806
165.1038 3.336704
168.0947 3.437816
168.1389 3.336704
169.1015 2.73003
170.0839 2.527806
170.1084 3.741153
171.1156 7.077856
172.1204 3.538928
173.1329 8.59454
173.1426 1.921132
175.148 100.0
177.1611 10.920121
183.1141 5.156724
184.0056 4.044489
184.1214 3.741153
185.0847 2.325581
185.131 7.583418
187.0491 3.336704
187.1495 3.134479
189.1615 3.437816
193.157 6.268959
197.1312 9.50455
198.1353 5.763397
199.1491 10.111223
201.1643 3.741153
203.1801 11.32457
211.1486 19.413549
212.1523 2.932255
223.1433 2.527806
224.1539 1.82002
225.1605 2.022245
237.1613 2.123357
241.1482 2.628918
267.2078 6.572295
285.222 6.875632
293.0732 1.921132

