>compound 
>formula C48H78O18
>parentmass 960.5526366662
>ionization [M + H3N + H]+
>instrumentation Unknown (LCMS)
>source file:/Users/fanzhoukong/Documents/GitHub/Libgen/data/EAD_PFP/0_unknown_/spectrum.ms
>quality UNKNOWN

>ms2peaks
113.036997 29.0
115.049756 95.0
115.055016 578.0
116.061745 94.0
117.071805 248.0
118.076654 62.0
119.085803 1249.0
120.089573 20.0
121.104032 188.0
123.094671 43.0
123.118581 77.0
125.023739 44.0
126.046689 40.0
127.046198 180.0
127.057238 189.0
128.062967 596.0
129.062627 251.0
130.068406 59.0
130.076236 88.0
131.085955 211.0
133.099034 26.0
144.041577 48.0
145.099296 163.0
146.066155 93.0
147.064755 230.0
147.095625 341.0
147.109885 370.0
147.966604 30.0
148.123944 68.0
149.130733 699.0
150.046093 45.0
151.054552 112.0
152.061561 499.0
153.070681 289.0
154.0698 92.0
155.088019 266.0
156.089979 114.0
157.102558 533.0
158.107317 100.0
159.112807 685.0
160.121486 96.0
161.134595 729.0
162.052385 364.0
163.149134 529.0
164.060053 61.0
165.070443 301.0
166.067502 57.0
166.076332 47.0
167.082761 122.0
168.087141 75.0
168.096031 98.0
169.09962 170.0
170.106209 79.0
171.115779 398.0
172.120608 35.0
173.133567 958.0
174.143007 135.0
175.148916 811.0
176.156425 134.0
177.164185 848.0
178.078094 93.0
179.083503 58.0
179.146423 37.0
180.075943 26.0
180.091703 37.0
181.092222 46.0
181.101442 86.0
182.112691 46.0
183.117451 150.0
184.12498 35.0
185.135279 280.0
186.140319 140.0
187.149408 790.0
188.151847 53.0
188.155877 164.0
189.165017 1863.0
190.174186 284.0
191.001846 28.0
191.179235 356.0
192.979534 47.0
193.159184 81.0
195.101443 67.0
195.116513 65.0
196.127672 23.0
197.131831 113.0
198.138521 54.0
199.14919 233.0
200.158249 54.0
201.165709 1282.0
202.175688 65.0
203.177037 2530.0
204.161257 70.0
205.159076 323.0
206.167765 94.0
207.174715 1856.0
208.082354 32.0
209.133603 60.0
211.148682 89.0
212.160561 55.0
213.166281 379.0
214.16146 31.0
215.180539 840.0
216.187619 25.0
217.178278 129.0
217.199928 120.0
218.161067 48.0
219.172207 232.0
220.184196 63.0
221.153375 69.0
221.172305 162.0
223.152244 143.0
225.077793 51.0
225.167453 81.0
226.169622 51.0
227.176961 104.0
229.19688 178.0
230.105409 52.0
231.164659 65.0
231.179569 119.0
233.154327 95.0
233.187217 90.0
235.152506 47.0
235.172036 166.0
236.176635 69.0
237.079275 94.0
237.168265 80.0
239.171443 63.0
239.182033 165.0
241.071972 38.0
241.196712 336.0
243.210651 184.0
245.163949 98.0
245.196159 68.0
246.163499 31.0
247.165108 176.0
248.176437 583.0
249.185217 235.0
250.965166 23.0
251.180925 94.0
253.193964 219.0
254.201933 50.0
255.085153 569.0
256.214462 41.0
257.211131 80.0
257.229991 126.0
258.187721 27.0
259.16773 99.0
261.199779 128.0
263.177807 29.0
265.024516 40.0
265.195166 79.0
267.210635 178.0
269.212863 41.0
269.224123 167.0
271.082212 33.0
272.089572 61.0
273.098821 1111.0
275.196079 28.0
279.205047 19.0
279.211577 129.0
281.226955 177.0
283.243004 67.0
285.185173 118.0
287.200372 76.0
288.210621 261.0
289.09105 98.0
290.10463 61.0
291.108299 318.0
293.226457 72.0
295.246266 72.0
297.217275 43.0
297.256115 41.0
299.201614 52.0
299.216844 97.0
300.212383 59.0
301.212932 111.0
305.08985 26.0
307.096808 97.0
307.241008 50.0
308.112218 145.0
309.120677 3617.0
311.206516 54.0
313.223054 47.0
315.233953 58.0
319.23825 72.0
321.220919 38.0
321.256039 72.0
324.101497 102.0
325.109276 126.0
325.229396 49.0
326.146936 66.0
327.131315 67.0
327.230555 117.0
329.241424 77.0
333.261891 26.0
335.09389 36.0
335.27502 37.0
337.233048 48.0
341.229506 80.0
341.244006 64.0
342.138535 26.0
343.261094 36.0
345.254993 24.0
349.27842 83.0
351.309919 193.0
353.107948 39.0
353.244178 60.0
355.257576 67.0
356.272006 27.0
361.293062 37.0
363.299411 73.0
365.23264 40.0
366.253689 29.0
367.266758 41.0
369.138977 40.0
369.280147 59.0
375.304043 72.0
377.291772 47.0
377.320302 83.0
379.34197 114.0
381.129939 37.0
381.284839 68.0
382.149948 26.0
385.308576 31.0
387.235825 42.0
389.322494 65.0
390.330183 30.0
391.337262 765.0
392.349502 62.0
393.306711 88.0
393.314461 151.0
393.345561 87.0
395.28889 100.0
396.304269 55.0
397.313148 445.0
407.336002 299.0
408.329131 90.0
408.346931 209.0
409.34723 2325.0
410.35471 97.0
411.361449 165.0
413.312868 43.0
417.135525 37.0
419.158744 52.0
419.329224 95.0
421.311522 96.0
423.318601 51.0
423.322651 207.0
424.33303 289.0
425.33453 573.0
426.355399 153.0
427.359278 767.0
431.331656 26.0
433.313524 59.0
435.152783 446.0
435.324443 146.0
436.336772 469.0
437.348222 4974.0
439.32948 282.0
441.344009 44.0
443.317788 33.0
445.351756 66.0
451.327642 33.0
451.358862 80.0
452.329232 55.0
453.150481 91.0
453.336091 597.0
454.34616 1719.0
455.35108 7093.0
456.361329 54.0
457.353818 33.0
459.356717 20.0
469.33291 140.0
470.16518 176.0
471.157679 668.0
471.170459 2452.0
472.353478 254.0
473.358938 2897.0
481.333602 26.0
483.345201 23.0
488.201028 88.0
495.378703 59.0
496.351602 66.0
507.346095 57.0
517.359668 27.0
519.375967 67.0
537.357945 30.0
537.380655 48.0
541.364352 24.0
547.370938 51.0
547.384678 75.0
551.375336 43.0
552.385585 42.0
554.388214 24.0
555.405853 39.0
556.419822 34.0
563.378378 72.0
563.396998 35.0
565.396136 910.0
567.375445 23.0
569.391004 31.0
570.396563 91.0
571.407732 49.0
572.401082 31.0
572.412792 45.0
573.416331 31.0
574.41139 37.0
575.4355 42.0
580.371526 20.0
581.391486 157.0
582.376835 42.0
583.400944 1423.0
585.366523 27.0
590.42334 32.0
597.372865 24.0
598.388484 42.0
599.393004 287.0
600.405513 179.0
601.406852 846.0
609.382617 47.0
615.394643 41.0
616.396292 115.0
617.401172 521.0
618.409291 203.0
618.421431 115.0
619.42308 5081.0
627.389445 130.0
631.390483 30.0
633.400671 38.0
634.404511 98.0
635.41898 1763.0
641.408966 27.0
645.389673 29.0
645.402063 70.0
650.42904 42.0
651.396269 12.0
652.439289 38.0
680.43299 203.0
697.438959 51.0
707.434802 39.0
709.411181 42.0
712.412339 21.0
727.441629 77.0
731.439426 38.0
736.452663 57.0
745.430867 89.0
745.457607 298.0
761.448686 132.0
762.451915 55.0
763.458445 177.0
766.471383 48.0
778.882934 30.0
779.462644 94.0
780.474913 144.0
781.460453 1697.0
781.482363 4730.0
793.473445 54.0
797.457572 108.0
797.468612 798.0
807.461525 25.0
812.485512 147.0
814.497231 253.0
842.504352 454.0
856.514843 53.0
869.513914 38.0
873.507751 48.0
887.509942 27.0
889.486801 32.0
897.510115 34.0
902.506142 102.0
906.489419 59.0
907.513159 185.0
911.537026 155.0
924.492758 79.0
924.522547 161.0
925.517727 75.0
941.524546 49.0
942.510756 65.0
943.527535 4241.0
957.365546 37.0
958.541995 207.0
959.540044 389.0
959.555234 614.0
960.553834 12825.0

