>compound 
>formula C22H30O14
>parentmass 536.1973766408801
>ionization [M + H3N + H]+
>instrumentation Unknown (LCMS)
>source file:/Users/fanzhoukong/Documents/GitHub/Libgen/data/EAD_PFP/0_unknown_/spectrum.ms
>quality UNKNOWN

>ms2peaks
50.013574 386.0
51.023865 1208.0
52.030135 520.0
53.039806 188.0
54.035406 38.0
55.017017 565.0
56.041927 30.0
56.057327 21.0
57.033378 342.0
60.98278 31.0
61.0042 53.0
62.01451 446.0
63.023001 2030.0
64.028651 23.0
65.038312 1168.0
66.044732 127.0
67.051653 272.0
68.023363 28.0
68.052453 18.0
68.991484 37.0
69.032174 1133.0
70.040214 29.0
70.061524 12.0
71.012625 69.0
71.041525 41.0
73.028616 96.0
74.016436 73.0
75.023607 143.0
76.031607 210.0
77.038598 1879.0
78.046158 1293.0
79.053299 500.0
80.051109 46.0
80.054619 84.0
81.03313 415.0
82.0451 61.0
83.051741 37.0
83.085671 28.0
84.081591 11.0
85.028322 1106.0
86.019432 29.0
87.023583 47.0
88.028053 21.0
89.036434 1158.0
89.043834 3905.0
90.044984 127.0
91.053605 1875.0
92.044345 33.0
92.055625 122.0
93.054616 129.0
94.039056 77.0
94.048556 93.0
95.050637 238.0
96.060907 15.0
97.028268 266.0
98.018908 33.0
98.061588 19.0
99.043819 82.0
101.03478 97.0
101.0397 117.0
102.04461 531.0
103.053501 420.0
104.059361 46.0
105.032962 425.0
106.043372 453.0
107.051513 352.0
108.019633 45.0
109.027904 442.0
110.040854 37.0
111.044045 21.0
112.997416 16.0
113.009916 62.0
114.009776 14.0
115.053967 877.0
116.054367 35.0
116.059647 69.0
117.038968 2327.0
117.041088 2943.0
118.042618 505.0
119.050559 313.0
119.086909 39.0
120.053129 45.0
121.03618 61.0
121.06636 103.0
122.03731 65.0
123.04257 115.0
124.046491 19.0
125.024921 27.0
125.059971 48.0
126.028082 95.0
127.041882 413.0
127.051822 118.0
128.063063 201.0
129.031583 26.0
129.066083 107.0
130.041734 68.0
130.061824 87.0
131.050204 199.0
132.029925 18.0
132.049055 22.0
133.030245 1094.0
134.036606 1883.0
135.041066 119.0
135.045626 124.0
136.051557 16.0
137.062397 342.0
139.058288 32.0
141.059309 32.0
141.070959 65.0
142.07337 38.0
143.03246 23.0
143.07113 49.0
144.066491 43.0
144.082951 33.0
145.031091 3777.0
146.033252 84.0
146.037982 213.0
147.045982 383.0
148.052683 425.0
149.062793 2391.0
150.058354 61.0
151.042774 171.0
152.053385 39.0
152.064245 80.0
153.064915 55.0
154.065226 32.0
154.073736 27.0
155.076106 40.0
156.078057 27.0
157.077087 20.0
158.034988 47.0
158.074388 39.0
159.120558 27.0
160.051179 25.0
161.021799 183.0
162.03152 132.0
163.04315 49.0
163.05691 164.0
164.054171 33.0
164.076741 16.0
165.055711 51.0
165.069551 133.0
166.070402 73.0
167.061612 15.0
167.074282 40.0
167.081882 36.0
168.078643 33.0
169.079633 26.0
170.098944 28.0
171.107224 24.0
173.060525 14.0
173.101765 22.0
175.043066 74.0
175.053446 29.0
175.070286 42.0
176.043767 91.0
176.061967 37.0
176.456027 44.0
176.475557 131.0
177.061667 12909.0
177.946558 30.0
178.090338 180.0
178.397678 19.0
178.563898 18.0
179.035448 861.0
180.075099 71.0
180.085629 104.0
186.051292 26.0
189.125153 14.0
190.061264 53.0
190.074784 26.0
191.070094 13.0
192.992335 24.0
193.048145 182.0
194.059406 2687.0
195.066456 1694.0
200.423679 66.0
201.066299 22.0
202.07466 20.0
203.07575 28.0
206.100912 19.0
207.032982 30.0
207.086542 38.0
207.137302 36.0
208.033563 16.0
208.088663 22.0
213.089765 19.0
215.073476 29.0
217.083717 14.0
219.067078 18.0
221.085659 22.0
224.765641 39.0
225.043301 19.0
226.074642 14.0
228.502643 15.0
229.050893 23.0
229.096853 12.0
231.067184 18.0
231.086554 27.0
232.070434 18.0
233.107285 12.0
237.077107 26.0
238.082737 20.0
247.095182 15.0
249.076353 29.0
252.073854 20.0
253.006345 29.0
257.080187 11.0
265.017571 31.0
266.998772 24.0
273.069175 25.0
279.085048 35.0
281.017849 27.0
281.050689 230.0
283.05786 27.0
283.07269 27.0
292.997895 19.0
296.023986 16.0
297.103677 19.0
299.055458 18.0
303.07536 64.0
303.08732 91.0
309.090983 16.0
320.075058 32.0
321.078359 54.0
321.104689 1240.0
324.07643 18.0
324.08879 27.0
325.105391 24.0
326.962661 37.0
328.271232 18.0
338.080557 33.0
338.105797 172.0
339.118857 3547.0
341.015708 22.0
344.85617 14.0
354.089515 32.0
354.102415 40.0
355.931586 16.0
356.120116 229.0
357.102446 453.0
357.122806 3281.0
370.125653 17.0
415.001375 17.0
415.037295 42.0
416.139686 15.0
501.136398 41.0
501.167098 61.0
503.109849 68.0
518.182516 20.0
519.135157 22.0
536.148595 28.0
536.171295 152.0
536.212125 76.0

