>compound 
>formula C21H22O7
>parentmass 404.1703740460501
>ionization [M + H3N + H]+
>instrumentation Unknown (LCMS)
>source file:/Users/fanzhoukong/Documents/GitHub/Libgen/data/EAD_PFP/0_unknown_/spectrum.ms
>quality UNKNOWN

>ms2peaks
102.04991 30.0
115.045827 179.0
115.058437 819.0
117.071016 28.0
121.027785 18.0
126.046984 649.0
127.042073 31.0
127.057533 660.0
128.043313 52.0
128.054383 96.0
128.064363 6598.0
129.070713 73.0
129.567553 42.0
131.029052 69.0
131.049242 135.0
133.036042 47.0
134.039031 41.0
139.05496 46.0
140.06178 52.0
141.074559 1793.0
142.058289 140.0
142.079319 223.0
142.591199 47.0
143.086459 9604.0
144.046598 26.0
144.057178 88.0
144.065418 57.0
145.038268 285.0
145.063038 310.0
146.023868 24.0
146.099638 49.0
146.109118 62.0
147.047238 1078.0
148.120697 28.0
148.127857 29.0
149.024597 20.0
149.046127 86.0
149.134647 31.0
149.371597 35.0
150.050017 237.0
150.058407 123.0
150.152037 28.0
151.046456 151.0
151.054886 1975.0
151.593546 27.0
152.066706 10850.0
152.570886 24.0
153.074656 12530.0
154.078646 3523.0
154.595865 46.0
155.054185 296.0
155.073715 10188.0
156.058495 6345.0
157.068505 4468.0
157.530485 41.0
157.643615 39.0
158.039914 4777.0
158.514404 47.0
159.047664 17068.0
159.779884 30.0
160.005334 101.0
160.018964 258.0
161.014344 93.0
161.025544 429.0
161.132454 30.0
162.032753 602.0
163.054393 85.0
163.133223 39.0
164.044103 27.0
164.065443 59.0
164.118143 40.0
165.072042 1461.0
166.065332 38.0
167.053992 211.0
167.062842 92.0
167.075512 83.0
168.060812 1306.0
169.063041 292.0
169.068141 1906.0
169.444101 32.0
170.033741 43.0
170.077191 442.0
170.473461 48.0
170.486241 67.0
170.506711 94.0
171.062321 41104.0
171.725361 37.0
171.865321 42.0
172.033611 67.0
172.091421 80.0
172.23153 38.0
172.49132 46.0
172.84531 38.0
173.02695 474.0
173.03985 476.0
173.04887 610.0
173.0566 233.0
173.06304 284.0
173.56084 41.0
173.93401 25.0
174.02964 26.0
174.07616 66.0
174.13175 23.0
174.3438 20.0
175.03522 310.0
175.04429 2031.0
175.957919 35.0
176.052789 30.0
176.113879 32.0
177.109809 31.0
177.159349 37.0
178.026189 23.0
178.189609 73.0
179.058969 79.0
179.061579 205.0
179.642768 78.0
180.044778 24.0
180.055268 34.0
180.157828 27.0
181.068868 9939.0
182.049608 96.0
182.072068 413.0
183.048897 987.0
183.064807 730.0
184.056247 19817.0
184.693397 28.0
184.853187 35.0
185.063697 10143.0
186.036477 685.0
186.575316 20.0
187.041276 5658.0
188.009826 21.0
188.038046 44.0
188.336366 23.0
189.010506 74.0
189.026656 276.0
189.053606 110.0
190.074615 28.0
190.998175 21.0
191.036085 49.0
191.147145 34.0
191.510275 58.0
191.725895 121.0
192.990805 28.0
194.085164 36.0
195.030704 18.0
195.052594 40.0
195.079954 50.0
197.064833 1882.0
197.685513 39.0
198.056203 242.0
198.068623 1618.0
198.377563 111.0
198.396863 82.0
198.439653 117.0
199.059743 33448.0
200.021483 51.0
200.074123 97.0
200.110173 65.0
200.121243 109.0
200.154513 83.0
200.463702 33.0
200.642652 27.0
200.814762 18.0
201.048052 299.0
201.057772 1088.0
201.458002 34.0
201.502502 43.0
201.690272 41.0
201.985322 45.0
202.112042 38.0
202.158002 40.0
202.169142 65.0
202.406002 27.0
202.673672 32.0
202.842472 34.0
203.026672 96.0
203.040632 185.0
203.051802 122.0
203.061572 100.0
203.635712 32.0
204.256861 37.0
204.527161 28.0
205.066911 26.0
205.117401 29.0
207.121551 11.0
209.0632 782.0
209.34375 34.0
210.07432 48.0
210.16662 29.0
211.043789 216.0
212.049709 6126.0
213.059449 4405.0
214.067299 34.0
215.045908 36.0
215.060278 63.0
215.074638 125.0
215.093318 32.0
216.165008 22.0
216.424328 35.0
217.086328 28.0
217.116638 43.0
218.810207 24.0
220.148297 11.0
222.173306 25.0
222.668576 27.0
223.083906 57.0
224.511296 23.0
225.057675 92.0
225.076755 85.0
225.436985 24.0
225.716525 62.0
225.834295 31.0
225.916745 29.0
226.050745 52.0
226.064005 125.0
226.069895 162.0
226.299725 119.0
226.311515 291.0
226.332165 821.0
226.358685 172.0
226.556225 65.0
226.612255 90.0
226.725825 43.0
226.768595 50.0
227.074055 52961.0
228.868204 400.0
229.046084 1137.0
229.059424 948.0
262.114605 12.0
281.15192 238.0
288.830177 1073.0
292.105866 12.0
296.711395 12.0
298.590765 18.0
301.009524 61.0
303.281063 12.0
307.463132 1433.0
308.288212 14.0
310.253871 2675.0
310.326351 12.0
312.137511 777.0
312.492431 12.0
314.45929 12.0
315.11801 12.0
316.948329 12.0
318.252439 12.0
318.539119 12.0
319.699339 12.0
320.826598 12.0
320.981018 12.0
322.293418 14.0
324.082697 12.0
324.857357 19.0
326.046717 12.0
327.130156 1613.0
328.210076 12.0
328.604176 12.0
330.181206 12.0
331.435565 12.0
333.534415 35.0
334.053425 61.0
335.621914 13.0
339.376033 12.0
356.272628 12.0
368.114605 24.0
368.257455 27.0
368.281905 31.0
393.324898 55.0
404.110535 32.0

