>compound 
>formula C22H26O12
>parentmass 505.13164727282
>ionization [M + Na]+
>instrumentation Unknown (LCMS)
>source file:/Users/fanzhoukong/Documents/GitHub/Libgen/data/EAD_PFP/0_unknown_/spectrum.ms
>quality UNKNOWN

>ms2peaks
126.045673 56.0
127.052923 62.0
128.057524 240.0
129.064954 67.0
130.067414 57.0
131.051314 61.0
131.068134 52.0
132.079455 57.0
133.079955 61.0
134.098985 25.0
135.104825 11.0
137.057806 95.0
139.050206 69.0
140.060486 24.0
141.068626 131.0
142.066367 86.0
143.067597 105.0
144.080597 37.0
145.061767 38.0
146.085328 93.0
147.045978 51.0
147.069738 31.0
163.051901 50.0
164.059161 46.0
165.067022 248.0
166.065342 72.0
166.076712 121.0
167.069212 74.0
168.074842 45.0
168.086262 45.0
169.023602 128.0
170.072103 49.0
171.040603 42.0
172.079923 49.0
173.059233 30.0
175.040474 40.0
175.151954 37.0
176.061964 93.0
177.055144 157.0
178.077254 190.0
179.072174 88.0
180.086945 138.0
181.094025 64.0
182.089385 31.0
182.188515 22.0
183.035765 27.0
184.113526 58.0
185.042496 227.0
187.037386 209.0
188.052946 80.0
189.069917 187.0
190.068027 69.0
191.001047 87.0
191.071437 81.0
192.091107 50.0
192.981447 46.0
193.157037 18.0
195.108868 40.0
197.111788 21.0
201.021869 36.0
201.041309 37.0
202.077439 95.0
203.05202 1381.0
204.08212 63.0
204.1479 39.0
205.04889 296.0
206.10372 53.0
207.03438 174.0
208.033561 23.0
208.111271 42.0
209.086111 20.0
210.128541 64.0
211.167861 28.0
212.141281 35.0
213.072592 26.0
215.083532 52.0
216.094712 33.0
217.089492 36.0
219.100423 11.0
221.041953 24.0
221.117693 34.0
225.043294 30.0
226.079064 34.0
227.084735 23.0
229.098315 35.0
230.100275 25.0
231.041865 107.0
234.129956 23.0
237.117817 23.0
240.071527 30.0
242.099088 35.0
245.082028 26.0
247.059749 34.0
248.992869 12.0
250.97697 19.0
254.95939 28.0
264.172992 30.0
265.019153 83.0
266.998763 40.0
268.019363 18.0
268.979293 23.0
269.074083 39.0
271.065504 28.0
273.078874 29.0
275.088275 26.0
279.083396 12.0
281.050676 147.0
281.060536 65.0
282.051746 38.0
283.049606 82.0
287.090287 21.0
291.091088 27.0
295.079179 12.0
297.069879 36.0
297.101979 12.0
307.063741 70.0
309.099572 31.0
313.087423 33.0
319.076834 20.0
321.090604 29.0
323.079035 90.0
324.065825 15.0
325.071805 1444.0
326.111176 12.0
332.141207 12.0
333.091677 19.0
335.073817 15.0
337.088808 38.0
339.093598 27.0
339.109828 93.0
341.057279 197.0
343.077449 112.0
349.08774 241.0
351.107671 660.0
355.067142 12.0
362.377323 35.0
365.084504 42.0
366.105324 36.0
367.103184 4833.0
368.111794 232.0
371.076115 74.0
383.098278 206.0
385.087288 61.0
385.091108 203.0
392.8365 12.0
395.04139 30.0
425.098096 18.0
427.104087 12.0
435.132279 29.0
445.109911 52.0
448.136651 12.0
455.096123 18.0
456.037013 12.0
457.112943 87.0
473.101137 34.0
475.123257 165.0
485.108639 12.0
487.108669 59.0
487.128139 164.0
503.120763 200.0
504.123233 1615.0
505.144323 8088.0

