>compound 
>formula C51H86O23
>parentmass 1089.54521002189
>ionization [M + Na]+
>instrumentation Unknown (LCMS)
>source file:/Users/fanzhoukong/Documents/GitHub/Libgen/data/EAD_PFP/0_unknown_/spectrum.ms
>quality UNKNOWN

>ms2peaks
50.01605 113.0
51.023558 255.0
52.031217 42.0
53.038746 58.0
54.035045 22.0
55.054434 104.0
55.933783 7.0
56.048133 15.0
57.070702 22.0
57.933881 7.0
60.983847 55.0
61.008327 7.0
62.016346 36.0
63.022505 169.0
64.030494 22.0
65.039373 661.0
66.044992 51.0
67.053511 145.0
68.05027 24.0
68.995789 158.0
71.083856 5.0
72.936774 13.0
74.016633 22.0
75.011922 6.0
75.020412 24.0
76.029231 38.0
77.03878 609.0
78.045469 161.0
79.055198 260.0
80.050386 62.0
81.068565 92.0
82.915343 5.0
83.085803 8.0
87.023689 13.0
88.030908 13.0
89.038377 161.0
90.042285 22.0
91.055554 1216.0
92.057573 104.0
93.063192 56.0
94.054321 8.0
94.063821 37.0
95.08603 21.0
95.952499 9.0
96.083039 5.0
98.098487 11.0
99.990794 7.0
101.040693 11.0
102.046602 50.0
103.053511 137.0
104.05037 16.0
105.071099 89.0
106.068568 27.0
107.075817 24.0
107.084947 8.0
108.082736 24.0
109.101524 14.0
110.999612 20.0
112.004031 6.0
113.00152 39.0
113.02027 9.0
114.033769 18.0
115.055998 321.0
116.059567 35.0
117.065376 82.0
118.068075 31.0
119.080393 16.0
120.065902 7.0
120.082002 15.0
122.09672 10.0
125.037927 5.0
126.048836 31.0
127.054985 59.0
128.062914 252.0
129.067032 68.0
130.067241 75.0
130.99284 16.0
131.0702 21.0
132.016229 18.0
132.071389 22.0
132.081529 20.0
133.013098 5.0
133.084298 8.0
134.097667 17.0
135.016966 8.0
136.022805 7.0
137.002554 7.0
139.055761 42.0
140.05216 12.0
141.059079 11.0
141.069569 73.0
141.928378 9.0
142.055608 6.0
142.067288 28.0
143.073207 38.0
144.080356 59.0
145.086305 12.0
145.100465 8.0
145.965514 15.0
146.070874 13.0
146.098114 7.0
147.117003 6.0
148.114391 6.0
150.047279 15.0
151.053338 16.0
152.062747 78.0
153.067056 26.0
154.067355 24.0
155.056274 6.0
156.080183 15.0
157.086592 6.0
158.09498 34.0
159.086869 18.0
159.097969 11.0
161.099777 6.0
162.032416 4.0
163.052805 16.0
164.061314 12.0
165.070443 107.0
166.070032 40.0
167.075171 59.0
168.056669 6.0
168.080799 33.0
169.080518 28.0
169.089448 14.0
170.074277 6.0
170.097277 15.0
171.064526 5.0
172.111645 13.0
173.102644 6.0
174.128813 9.0
174.998572 6.0
175.054312 8.0
175.150232 12.0
176.064141 23.0
176.98432 9.0
177.056019 10.0
177.069049 15.0
178.075518 48.0
179.074347 13.0
179.086137 33.0
180.068076 5.0
180.081226 26.0
180.174576 6.0
181.088295 17.0
182.080984 8.0
182.098174 25.0
182.190704 9.0
183.036623 7.0
183.090973 5.0
184.103742 13.0
185.043351 9.0
186.09358 6.0
187.057008 11.0
189.072126 57.0
190.068875 17.0
190.075635 18.0
191.001904 28.0
191.062824 6.0
191.076364 6.0
191.088554 18.0
192.003713 7.0
192.083813 20.0
192.982292 30.0
193.084372 7.0
193.979721 6.0
194.098451 10.0
194.97701 8.0
195.11245 7.0
196.098909 11.0
196.120848 6.0
197.119497 6.0
198.128936 7.0
200.061304 10.0
201.067133 12.0
202.076882 22.0
203.065411 8.0
203.079371 10.0
204.08155 13.0
206.080637 11.0
206.097507 7.0
207.033806 85.0
208.031545 14.0
209.013274 7.0
209.026024 8.0
210.989362 9.0
211.134542 7.0
212.140671 12.0
213.05054 6.0
213.07483 7.0
214.065519 6.0
215.088648 17.0
216.081126 19.0
217.088865 18.0
218.093164 5.0
219.099773 7.0
220.111612 7.0
221.106851 8.0
225.044097 16.0
226.078385 7.0
227.088484 8.0
228.080103 6.0
229.073892 6.0
230.077301 5.0
234.130727 16.0
234.972406 6.0
236.952703 5.0
239.083691 9.0
241.097949 8.0
242.986267 11.0
248.99827 12.0
250.121789 8.0
250.966858 5.0
250.999458 9.0
251.069288 6.0
254.192714 6.0
258.1249 7.0
265.023063 19.0
266.99947 14.0
268.002459 7.0
271.092056 6.0
281.051395 74.0
282.050814 15.0
283.050323 9.0
299.061195 6.0
301.126473 6.0
303.106731 8.0
315.107227 17.0
317.124165 16.0
329.158152 19.0
341.159239 48.0
345.073294 6.0
347.096182 7.0
437.301553 12.0
453.299035 11.0
455.313953 7.0
465.130172 6.0
465.157662 17.0
467.308849 8.0
469.352517 6.0
483.306972 23.0
485.31624 6.0
493.157791 9.0
495.167799 11.0
509.153193 16.0
511.168931 13.0
511.301811 7.0
513.319539 21.0
527.318793 6.0
527.334533 7.0
555.325712 6.0
559.324308 5.0
562.347135 6.0
583.361452 6.0
585.338809 6.0
587.352717 27.0
589.377195 17.0
599.355334 11.0
601.376382 56.0
602.371381 28.0
603.386389 10.0
615.349206 25.0
616.358125 18.0
617.365384 236.0
619.360502 5.0
619.392172 15.0
628.352432 6.0
645.365593 10.0
646.371392 12.0
647.365471 28.0
647.377981 143.0
651.352097 3.0
677.340288 6.0
689.394115 6.0
709.354723 3.0
717.374124 6.0
726.351834 6.0
727.342193 24.0
741.350657 6.0
741.369337 11.0
742.364576 14.0
747.439151 14.0
761.417225 8.0
763.418933 9.0
767.343249 6.0
774.409461 6.0
775.41843 7.0
780.369234 6.0
781.354703 5.0
782.346282 6.0
782.376432 16.0
783.417991 3.0
791.409012 8.0
793.41383 6.0
794.399249 9.0
795.412858 61.0
807.415344 5.0
811.40637 39.0
812.416799 19.0
819.445971 6.0
821.435409 17.0
823.446877 7.0
837.417751 6.0
839.400479 10.0
865.44403 6.0
867.453848 13.0
879.460185 6.0
891.458342 6.0
895.461147 17.0
896.484456 6.0
897.467365 7.0
907.449534 6.0
908.441353 6.0
909.439582 7.0
909.480962 125.0
910.479741 16.0
923.472707 10.0
925.417714 6.0
925.483264 125.0
926.481863 9.0
927.492972 29.0
939.459019 6.0
941.477817 7.0
942.485016 6.0
943.492834 20.0
953.454793 7.0
953.469933 18.0
954.462362 6.0
955.482501 177.0
968.462347 6.0
969.483896 8.0
969.493046 12.0
971.485844 63.0
983.47338 15.0
984.490529 7.0
985.498948 8.0
996.480446 6.0
997.495025 6.0
999.519503 6.0
1029.52289 8.0
1045.501752 8.0
1057.525179 16.0
1058.512968 6.0
1058.538478 11.0
1059.536286 17.0
1059.555446 9.0
1060.544215 16.0
1061.562034 10.0
1069.521255 15.0
1070.530654 26.0
1071.482803 6.0
1071.534073 11.0
1073.516731 8.0
1085.519038 8.0
1086.532717 19.0
1087.540406 154.0
1088.519525 13.0
1088.535635 172.0
1089.550773 1972.0

