>compound 
>formula C12H16O6
>parentmass 279.08390923310003
>ionization [M + Na]+
>instrumentation Unknown (LCMS)
>source file:/Users/fanzhoukong/Documents/GitHub/Libgen/data/EAD_PFP/0_unknown_/spectrum.ms
>quality UNKNOWN

>ms2peaks
50.014885 140.0
51.025173 380.0
52.027902 114.0
53.04111 78.0
54.040309 36.0
55.054658 98.0
56.049826 14.0
57.068705 72.0
59.051172 53.0
60.98101 38.0
62.018108 22.0
63.021167 105.0
65.038014 132.0
65.039594 909.0
66.047593 408.0
67.055331 200.0
68.996009 155.0
72.936983 11.0
74.015162 46.0
75.02232 53.0
76.033719 65.0
77.038997 476.0
78.043086 149.0
79.053675 176.0
81.073182 43.0
84.978977 20.0
85.973425 7.0
89.037661 152.0
90.04621 31.0
91.054828 902.0
92.056837 98.0
93.068115 23.0
94.040274 318.0
95.954611 24.0
97.02658 16.0
98.015259 18.0
99.996866 7.0
102.046793 128.0
103.050722 85.0
104.05256 52.0
105.070299 95.0
106.069778 31.0
108.074785 25.0
110.036892 13.0
113.003798 67.0
114.005717 29.0
115.054085 427.0
116.057644 61.0
117.065562 108.0
118.068261 46.0
119.08485 22.0
120.083258 30.0
121.029787 141.0
122.939414 16.0
123.063274 27.0
126.04462 14.0
127.055159 110.0
128.063087 189.0
129.068316 38.0
130.066325 80.0
130.991883 55.0
132.017532 30.0
133.07204 50.0
134.989818 13.0
137.046305 14.0
139.055932 25.0
141.065069 60.0
144.074635 14.0
145.972773 41.0
147.96437 16.0
149.025619 1963.0
150.055837 19.0
151.055896 66.0
152.060494 61.0
152.061694 118.0
153.064773 85.0
154.062652 59.0
154.074822 42.0
155.06253 23.0
155.08327 53.0
156.072999 61.0
156.079119 40.0
157.064648 25.0
158.074216 17.0
159.080835 43.0
160.050993 33.0
161.082532 33.0
163.056689 23.0
164.056458 14.0
165.071837 90.0
166.065125 46.0
167.071514 89.0
168.077132 54.0
169.075571 24.0
170.09359 15.0
171.033928 12.0
171.092878 8.0
173.113105 20.0
174.127664 14.0
175.000023 21.0
175.147783 15.0
176.059081 33.0
178.075649 58.0
179.081037 24.0
180.081376 26.0
180.996165 36.0
181.087104 27.0
183.038082 29.0
185.043489 35.0
186.112418 8.0
189.045304 21.0
189.068204 32.0
190.071682 20.0
190.996591 31.0
192.075789 36.0
192.983778 70.0
194.090387 41.0
195.105735 17.0
196.110004 18.0
198.065631 8.0
199.979689 24.0
201.015867 56.0
201.029757 51.0
201.047807 78.0
202.078386 23.0
203.076684 34.0
203.147904 21.0
207.033909 107.0
208.028827 22.0
209.028966 44.0
213.004881 9.0
215.084448 42.0
217.090405 8.0
219.060722 22.0
220.96858 13.0
222.132158 8.0
225.045654 16.0
225.147064 31.0
229.103648 13.0
230.990616 8.0
232.108634 21.0
240.149803 8.0
244.083968 20.0
248.984411 9.0
248.993691 15.0
251.080218 23.0
252.079317 8.0
261.981113 17.0
265.018339 30.0
267.012326 21.0
267.941585 8.0
268.981684 14.0
277.073203 29.0
279.08742 3623.0

