>compound 
>formula C24H30O11
>parentmass 517.16803278217
>ionization [M + Na]+
>instrumentation Unknown (LCMS)
>source file:/Users/fanzhoukong/Documents/GitHub/Libgen/data/EAD_PFP/0_unknown_/spectrum.ms
>quality UNKNOWN

>ms2peaks
114.047252 38.0
115.05588 994.0
116.058397 36.0
117.071625 152.0
118.041352 36.0
119.045 156.0
119.05248 97.0
119.07172 66.0
119.08348 71.0
120.057198 30.0
121.063975 45.0
123.08253 72.0
126.045413 69.0
127.05375 217.0
128.062798 289.0
129.062455 54.0
141.047316 81.0
141.075246 109.0
142.072983 75.0
143.084801 55.0
144.059048 181.0
145.064906 361.0
146.071923 150.0
147.064581 231.0
147.084761 90.0
149.021706 72.0
149.094666 60.0
150.047134 140.0
151.055591 380.0
152.061389 850.0
153.072956 880.0
154.052594 129.0
154.067204 116.0
154.081784 187.0
155.053681 108.0
155.074411 264.0
155.084181 303.0
156.055549 89.0
157.064326 605.0
158.059114 85.0
158.072664 247.0
159.073111 80.0
159.084211 415.0
160.066789 67.0
160.086629 107.0
161.061077 142.0
161.085937 140.0
163.005102 36.0
163.046382 121.0
163.053892 126.0
164.054889 115.0
164.066179 120.0
165.045107 100.0
165.069017 949.0
166.076174 129.0
166.995242 47.0
167.024352 183.0
167.052202 139.0
167.086392 110.0
168.005699 557.0
168.050149 130.0
169.019217 196.0
169.042157 344.0
169.066357 307.0
170.074104 137.0
171.050262 539.0
171.065652 434.0
172.05236 127.0
172.081909 157.0
172.089619 99.0
173.058657 127.0
173.074107 216.0
173.096027 125.0
174.073055 66.0
175.058022 129.0
175.081352 162.0
175.109872 69.0
177.058427 85.0
177.081917 49.0
178.081865 184.0
179.044002 102.0
179.076782 179.0
179.084652 151.0
180.00876 82.0
180.08761 70.0
181.039327 131.0
181.067007 637.0
182.030575 47.0
182.070225 232.0
183.032463 596.0
183.053652 299.0
183.073552 177.0
184.05039 53.0
184.08097 79.0
184.08895 120.0
185.061818 449.0
185.071147 318.0
186.054635 66.0
186.085375 149.0
186.108095 83.0
187.072883 129.0
187.094323 185.0
187.111732 346.0
188.08048 101.0
189.078668 141.0
191.066693 66.0
191.091063 103.0
192.05917 102.0
193.066478 69.0
194.023205 48.0
194.077785 133.0
195.034263 403.0
195.064363 128.0
196.05344 101.0
196.08773 59.0
197.058778 504.0
197.086278 74.0
198.066676 55.0
198.090135 128.0
198.106675 82.0
199.075773 231.0
199.092353 277.0
200.048641 43.0
200.065271 58.0
201.058598 420.0
201.078058 182.0
201.119708 74.0
202.075276 74.0
203.073583 57.0
203.107083 87.0
205.067748 95.0
207.027943 86.0
207.056143 103.0
207.064593 85.0
207.082923 48.0
208.010141 31.0
208.053941 75.0
209.058378 271.0
210.073756 151.0
211.057444 257.0
211.071684 145.0
211.080223 284.0
212.046291 60.0
212.083381 87.0
213.061749 888.0
213.076039 403.0
213.094629 205.0
214.085366 127.0
214.095386 159.0
215.059714 132.0
215.088424 189.0
215.108554 211.0
216.112581 150.0
217.104509 63.0
217.123269 44.0
218.071236 82.0
219.064754 52.0
219.121304 129.0
221.067299 86.0
221.148849 68.0
222.017957 91.0
222.073436 44.0
223.042354 144.0
223.077464 85.0
224.077911 82.0
225.054129 384.0
226.064907 187.0
227.063144 122.0
227.072014 181.0
227.083824 133.0
227.108904 172.0
227.142874 62.0
228.047322 145.0
228.066542 85.0
228.082822 69.0
229.052919 80.0
229.128519 94.0
230.059217 32.0
230.114197 45.0
230.130537 91.0
231.100484 102.0
231.124304 127.0
233.056969 84.0
233.100349 31.0
233.118289 67.0
235.059244 60.0
235.087784 62.0
235.123844 66.0
236.056072 67.0
237.05351 226.0
238.062097 279.0
239.077385 493.0
239.107675 146.0
240.047762 77.0
240.076602 123.0
241.04446 96.0
241.05357 212.0
241.06575 320.0
241.09161 131.0
242.064537 258.0
243.065405 303.0
244.095882 46.0
245.15462 42.0
247.077175 53.0
247.109525 76.0
249.05365 242.0
250.059548 111.0
251.070575 116.0
252.040103 101.0
252.047883 79.0
253.052 984.0
254.050318 174.0
255.066245 245.0
255.077225 468.0
255.111625 74.0
256.038753 71.0
256.059133 127.0
256.073233 284.0
257.05236 97.0
257.09478 105.0
258.041218 94.0
258.058548 87.0
259.093495 182.0
259.104505 159.0
260.029373 43.0
261.10466 35.0
262.060068 38.0
262.099708 54.0
263.069616 134.0
263.101385 52.0
265.053101 195.0
266.062008 706.0
267.061616 194.0
267.068056 1130.0
268.064723 211.0
268.079153 369.0
269.037561 228.0
269.047201 808.0
269.072931 297.0
270.029868 45.0
270.054038 498.0
271.062736 1765.0
272.073313 62.0
273.064711 80.0
275.065956 41.0
277.056551 59.0
277.087561 76.0
278.070069 78.0
279.067446 292.0
279.085446 139.0
280.056754 96.0
280.074794 95.0
281.052731 1152.0
281.190701 117.0
282.053789 374.0
282.063649 314.0
282.073539 172.0
283.061546 1604.0
284.071124 1451.0
285.047771 91.0
285.077531 778.0
286.055889 117.0
286.070809 149.0
287.064126 63.0
287.094006 71.0
289.087621 59.0
289.187561 32.0
291.069767 171.0
291.086457 199.0
292.043244 84.0
292.083434 56.0
292.118584 53.0
293.045222 56.0
293.063682 208.0
293.092192 112.0
294.043879 157.0
294.057299 605.0
295.061027 844.0
296.071524 1946.0
297.038162 350.0
297.061812 1074.0
298.058819 271.0
298.065589 789.0
299.057477 3287.0
300.064614 560.0
301.071752 277.0
304.098115 45.0
305.074332 129.0
305.086302 74.0
306.08639 48.0
307.060657 371.0
308.069105 229.0
309.075792 1331.0
310.05998 168.0
310.07033 284.0
310.09276 298.0
311.062997 1183.0
312.067635 4675.0
313.075602 3457.0
314.08695 2819.0
315.087768 447.0
316.074495 44.0
317.080193 35.0
317.158682 41.0
317.209282 72.0
319.061418 76.0
319.099908 91.0
321.094443 147.0
321.108473 487.0
322.09929 72.0
323.081068 638.0
324.066145 2372.0
325.077403 1273.0
326.049561 167.0
326.08316 524.0
327.088718 4595.0
328.070986 625.0
328.097595 520.0
329.097343 3041.0
330.077291 78.0
331.064018 45.0
331.097888 59.0
331.179888 49.0
333.083023 102.0
333.127703 59.0
333.215323 62.0
335.081248 92.0
336.084396 66.0
336.098766 133.0
337.085453 606.0
338.079011 620.0
339.086638 392.0
339.101078 1112.0
340.092136 330.0
341.072024 2690.0
342.078671 2667.0
343.090419 5302.0
344.089136 988.0
345.102034 320.0
347.093949 81.0
348.052776 103.0
348.107616 151.0
349.102604 320.0
349.108104 341.0
350.080721 60.0
350.093541 116.0
350.117341 132.0
351.093209 484.0
351.109719 551.0
352.105316 379.0
353.109674 1118.0
354.069422 72.0
355.085809 440.0
355.093199 623.0
355.111659 1270.0
356.092577 1166.0
357.093374 1642.0
357.108174 15374.0
358.106672 1098.0
359.076859 133.0
361.104964 62.0
362.122082 68.0
363.116369 102.0
363.127569 486.0
364.123237 99.0
364.132567 105.0
365.092164 182.0
365.109004 741.0
366.111142 347.0
367.118399 2157.0
368.106347 104.0
368.140187 81.0
369.123865 693.0
369.137044 2372.0
371.1046 277.0
371.11214 2722.0
372.126237 106.0
373.130385 761.0
374.124492 63.0
376.205967 44.0
377.118565 78.0
377.141385 72.0
378.114162 36.0
379.1206 292.0
379.13778 511.0
379.1473 454.0
379.17019 428.0
380.132197 1196.0
381.139425 2387.0
382.109673 128.0
382.142232 128.0
382.157552 77.0
383.12718 3114.0
384.122998 112.0
385.131635 523.0
385.147015 178.0
387.13166 70.0
387.14518 145.0
387.16831 73.0
388.186708 56.0
393.137625 109.0
394.146383 305.0
395.125231 65.0
395.14275 299.0
396.120928 96.0
397.129556 1575.0
397.842414 38.0
398.143383 2444.0
399.148721 2632.0
401.125946 218.0
401.137726 173.0
403.229981 24.0
407.118491 49.0
409.131176 47.0
409.178726 50.0
411.136911 199.0
411.148811 620.0
411.78669 73.0
412.144599 131.0
412.158519 573.0
413.167456 15794.0
415.141111 1185.0
416.157679 1203.0
418.232624 53.0
419.168721 53.0
422.144334 88.0
423.147262 114.0
424.165539 37.0
425.132477 70.0
426.136934 31.0
427.148652 211.0
429.159447 709.0
429.733975 89.0
430.164574 330.0
430.186944 137.0
431.176992 17926.0
432.217089 40.0
436.14851 39.0
437.192507 71.0
438.137275 46.0
439.134402 109.0
440.1532 232.0
441.160827 1315.0
443.177512 142.0
450.308415 286.0
453.158778 63.0
454.145715 104.0
454.170775 221.0
454.181205 211.0
455.121143 57.0
455.150413 96.0
455.175503 104.0
457.138018 94.0
457.158948 756.0
458.164905 345.0
459.146743 73.0
459.171953 43.0
463.289183 67.0
466.135856 54.0
469.114308 53.0
471.166183 486.0
471.625592 58.0
471.655372 80.0
472.151221 82.0
472.178871 299.0
473.190558 19863.0
475.159484 78.0
475.274783 43.0
476.214941 53.0
477.119629 42.0
481.163809 43.0
481.277698 59.0
481.305648 67.0
482.324876 68.0
482.350696 42.0
483.043714 30.0
483.121234 93.0
484.110062 77.0
484.135941 187.0
484.163951 165.0
485.145209 319.0
487.138824 37.0
489.175509 62.0
498.136297 142.0
498.153787 276.0
498.177837 71.0
499.164434 5747.0
501.12741 94.0
501.14496 218.0
502.154237 284.0
515.147215 93.0
515.162775 267.0
515.207275 79.0
515.440794 41.0
516.161613 852.0
517.1748 16295.0

