>compound 
>formula C13H14N2O3
>parentmass 269.08966331879003
>ionization [M + Na]+
>instrumentation Unknown (LCMS)
>source file:/Users/fanzhoukong/Documents/GitHub/Libgen/data/EAD_PFP/0_unknown_/spectrum.ms
>quality UNKNOWN

>ms2peaks
50.015526 221.0
51.023723 471.0
52.02573 76.0
53.038197 83.0
54.039534 6.0
55.056781 176.0
56.964356 23.0
57.073086 30.0
59.05262 36.0
60.983244 51.0
62.014191 49.0
63.024228 144.0
64.032226 44.0
65.041113 846.0
66.04276 45.0
67.052057 115.0
68.046384 15.0
68.995941 98.0
70.064378 20.0
71.047675 15.0
72.93609 23.0
73.06331 27.0
74.012577 38.0
75.004444 28.0
75.022254 57.0
76.027681 43.0
77.039788 967.0
78.045615 214.0
79.055352 187.0
80.04791 66.0
81.070477 115.0
82.057814 20.0
84.960855 15.0
86.015142 18.0
87.02292 15.0
88.026457 15.0
89.039444 241.0
90.045211 29.0
91.055698 1700.0
92.060535 96.0
92.995302 20.0
93.062392 58.0
94.067759 51.0
95.064206 57.0
97.953138 22.0
100.113412 19.0
101.039849 38.0
102.047726 177.0
103.052643 435.0
105.068228 92.0
106.065675 36.0
107.068852 26.0
107.088112 30.0
109.093476 27.0
111.000771 40.0
113.003735 49.0
113.046435 41.0
114.046452 37.0
115.055069 431.0
116.040696 21.0
116.056526 76.0
117.061263 197.0
118.065 41.0
119.084787 59.0
120.081055 43.0
121.091162 22.0
121.104102 18.0
123.082776 19.0
125.04572 23.0
125.0753 31.0
126.046757 25.0
126.902765 21.0
127.055105 92.0
128.054172 168.0
128.061922 213.0
129.054909 43.0
129.058259 73.0
130.067366 2537.0
130.990713 53.0
131.078173 49.0
132.0186 21.0
132.05463 43.0
132.07939 32.0
133.013227 18.0
133.073117 80.0
134.096644 18.0
136.121189 21.0
137.024446 23.0
139.03509 24.0
139.05588 24.0
140.052267 28.0
141.061534 136.0
141.927332 17.0
142.069741 85.0
143.072159 59.0
143.074509 89.0
144.046366 27.0
144.072236 46.0
145.072243 47.0
145.100563 29.0
146.06506 44.0
147.083837 15.0
147.966694 21.0
149.098511 18.0
150.044999 25.0
151.048626 47.0
152.059223 55.0
152.062853 127.0
153.06714 111.0
154.062597 45.0
154.067457 45.0
155.069804 52.0
155.080774 34.0
156.068051 31.0
157.091608 32.0
158.079095 53.0
158.096335 27.0
159.079543 49.0
159.090673 52.0
160.11291 24.0
162.997871 22.0
163.040391 18.0
163.064171 40.0
163.115451 23.0
164.055148 23.0
164.062688 31.0
165.069285 126.0
166.072663 42.0
167.07907 47.0
168.075817 68.0
169.056434 56.0
169.072984 27.0
170.061601 743.0
173.060222 12.0
174.998677 23.0
176.062944 24.0
177.091301 16.0
178.078228 86.0
179.079685 31.0
180.062912 20.0
181.075199 216.0
182.049357 24.0
184.107821 23.0
185.112748 19.0
186.053585 48.0
187.066462 461.0
189.050647 21.0
189.076236 65.0
190.063554 16.0
191.007401 31.0
191.072391 18.0
192.077098 50.0
192.981015 49.0
193.006875 58.0
193.074935 21.0
193.993462 20.0
194.094442 23.0
195.107059 38.0
196.085286 20.0
201.064442 16.0
202.078349 38.0
203.143676 22.0
205.070841 23.0
205.12134 21.0
207.033895 135.0
208.030212 40.0
208.107942 20.0
209.013359 37.0
209.106839 31.0
210.037146 32.0
210.057026 19.0
210.989444 15.0
212.996258 20.0
215.087302 22.0
218.023803 21.0
218.088893 16.0
221.115654 14.0
225.045633 24.0
225.089713 31.0
227.067887 40.0
227.081167 88.0
233.1156 20.0
236.030802 45.0
239.018613 31.0
242.993952 20.0
248.985954 14.0
250.987089 26.0
251.132988 23.0
254.03817 30.0
261.984277 18.0
262.992084 11.0
265.019948 36.0
266.997933 19.0
269.092537 849.0

