>compound 
>formula C59H96O26
>parentmass 1238.6528042029
>ionization [M + H3N + H]+
>instrumentation Unknown (LCMS)
>source file:/Users/fanzhoukong/Documents/GitHub/Libgen/data/EAD_PFP/0_unknown_/spectrum.ms
>quality UNKNOWN

>ms2peaks
80.558969 22.0
115.054474 288.0
117.058549 143.0
118.064412 46.0
120.077247 22.0
123.091984 22.0
126.045101 56.0
128.060266 211.0
128.063586 188.0
129.065489 102.0
150.046901 46.0
151.051763 50.0
152.062386 166.0
153.066688 92.0
155.082763 127.0
156.081056 58.0
157.081328 62.0
158.105751 52.0
159.113703 65.0
163.052473 127.0
165.071368 239.0
166.06593 112.0
167.076103 164.0
168.065245 38.0
169.101868 29.0
171.065513 89.0
172.112615 87.0
173.134568 60.0
175.149953 157.0
177.158708 76.0
179.083243 154.0
180.990477 67.0
181.086697 68.0
182.19045 38.0
183.097322 72.0
187.149202 47.0
189.163467 135.0
191.001662 62.0
191.085592 74.0
192.982037 147.0
195.086212 23.0
197.128887 68.0
199.143492 53.0
201.162767 143.0
203.176892 129.0
207.032182 102.0
210.990601 54.0
211.148572 39.0
215.088482 39.0
217.098796 86.0
219.088011 52.0
223.150721 30.0
225.073336 95.0
226.085609 23.0
231.172091 44.0
237.073246 26.0
239.091151 198.0
241.189116 37.0
243.086941 37.0
245.125646 23.0
247.166681 30.0
249.179076 26.0
249.185276 85.0
253.192486 23.0
258.115408 23.0
265.021435 26.0
273.095765 75.0
279.10374 77.0
281.048115 149.0
282.050807 74.0
283.047049 36.0
286.192107 22.0
288.214182 63.0
293.117694 29.0
293.124404 191.0
301.197944 23.0
309.112394 42.0
309.117554 259.0
346.277366 23.0
349.284423 69.0
369.118862 24.0
391.326307 53.0
391.337937 46.0
393.309352 26.0
397.325562 24.0
405.139211 39.0
409.342072 57.0
409.350002 175.0
419.149526 63.0
419.161556 24.0
425.157601 81.0
428.367209 22.0
435.325346 100.0
437.334781 66.0
437.340921 422.0
441.15355 123.0
451.149635 22.0
453.33498 68.0
454.345053 104.0
455.347895 116.0
455.354175 321.0
471.169374 80.0
473.35572 30.0
483.169734 22.0
488.199967 22.0
499.161234 24.0
550.36049 24.0
565.211297 22.0
567.190302 60.0
572.400215 32.0
582.210599 22.0
587.218241 182.0
599.370621 24.0
601.406086 83.0
603.214071 185.0
604.398404 30.0
617.234915 98.0
619.412661 407.0
619.432131 373.0
635.42326 32.0
693.447144 22.0
713.251393 166.0
713.264453 25.0
737.218062 25.0
749.222552 25.0
749.268142 315.0
751.452477 184.0
763.471667 25.0
767.453127 52.0
767.474797 147.0
777.439721 22.0
781.451941 138.0
781.479281 156.0
795.461246 25.0
852.491357 22.0
861.499009 44.0
882.447911 22.0
894.495671 27.0
897.513078 255.0
912.528125 54.0
913.516778 233.0
926.52536 25.0
927.503692 157.0
927.539522 180.0
942.522959 34.0
943.524662 261.0
983.515181 22.0

