>compound 
>formula C8H14N2O5S
>parentmass 251.069625854492
>ionization [M + H]+
>instrumentation Unknown (LCMS)
>source file:/Users/fanzhoukong/Documents/GitHub/Libgen/data/NIST_MONA/0_unknown_/spectrum.ms
>quality UNKNOWN

>ms2peaks
60.04449 2.036828
71.06029 4.785409
76.02149 4.735246
84.04451 20.11131
96.96122 1.030245
105.0014 2.969585
122.0269 100.0
123.0303 4.081227
124.0231 4.20285
130.0504 50.30311
131.0534 2.791173
142.0328 7.656086
188.0386 19.6906
189.0417 1.925143
190.0371 1.087507
205.0652 1.103597
216.0343 1.254088
233.0598 2.217132
234.0439 22.22054
235.0476 2.195836
251.0708 39.04188
252.0739 4.500518
253.0681 2.218552
273.0528 2.36573

