>compound 
>formula C38H44O8
>parentmass 651.29283937468
>ionization [M + Na]+
>instrumentation Unknown (LCMS)
>source file:/Users/fanzhoukong/Documents/GitHub/Libgen/data/EAD_PFP/0_unknown_/spectrum.ms
>quality UNKNOWN

>ms2peaks
50.014633 117.0
51.02422 286.0
52.029067 37.0
53.039425 136.0
55.054389 306.0
56.053957 13.0
57.995731 7.0
60.982253 55.0
62.017821 54.0
63.023218 186.0
64.034345 7.0
65.038502 480.0
66.04013 40.0
67.055827 112.0
68.995702 166.0
74.015678 40.0
75.022846 85.0
76.030833 47.0
77.03866 768.0
78.041887 95.0
79.048985 123.0
79.054205 168.0
81.071959 149.0
85.051789 21.0
87.022623 30.0
89.039148 190.0
90.045845 75.0
91.051653 570.0
92.05741 86.0
93.063017 37.0
94.062694 69.0
95.083942 90.0
99.994518 21.0
102.045413 46.0
103.04932 56.0
103.05628 78.0
104.048158 22.0
105.070895 99.0
106.068352 43.0
107.074589 48.0
108.087607 15.0
109.103344 34.0
110.996279 38.0
113.002324 33.0
114.043991 16.0
115.055748 284.0
116.055095 46.0
117.060883 118.0
118.06249 20.0
119.085477 32.0
120.083885 7.0
123.081296 24.0
126.039759 21.0
126.049659 45.0
127.055806 115.0
128.062623 281.0
129.06896 81.0
130.066958 106.0
130.993675 54.0
131.071035 73.0
132.008063 26.0
132.065462 22.0
133.09868 22.0
134.097357 29.0
135.032604 13.0
135.112284 20.0
136.060182 30.0
139.054284 72.0
140.049511 38.0
141.071558 139.0
142.073965 52.0
143.077573 42.0
144.08119 52.0
145.085947 71.0
145.967535 23.0
146.062235 26.0
147.084552 33.0
151.051771 32.0
152.062389 104.0
153.071526 86.0
154.070623 39.0
155.066881 49.0
156.078578 63.0
157.071485 28.0
159.09635 20.0
161.100634 31.0
163.037389 28.0
163.057399 44.0
164.063426 35.0
165.070024 268.0
166.067091 77.0
167.076018 106.0
168.070216 51.0
168.077836 37.0
169.072453 22.0
169.089033 49.0
170.08535 32.0
171.093588 36.0
171.112797 32.0
172.111205 39.0
173.129282 26.0
173.99267 71.0
175.065547 25.0
176.062394 49.0
176.142994 20.0
177.022982 28.0
178.077679 95.0
179.081756 54.0
180.083403 54.0
180.991611 25.0
181.062781 34.0
181.097071 48.0
182.076558 26.0
182.191558 21.0
183.087845 16.0
184.087323 20.0
185.11218 25.0
186.114477 11.0
186.997575 36.0
189.058169 51.0
189.068939 134.0
191.001394 76.0
191.073164 33.0
192.065661 25.0
192.086021 37.0
192.979069 24.0
192.991319 42.0
194.095216 70.0
195.095523 31.0
196.07371 28.0
196.11074 18.0
197.087348 40.0
198.128405 16.0
199.031242 17.0
200.06079 41.0
200.09265 20.0
201.067987 17.0
202.079124 93.0
203.045332 23.0
203.085822 33.0
203.140271 36.0
204.081019 47.0
205.080036 30.0
205.094076 27.0
207.031841 168.0
208.036648 29.0
208.112958 34.0
209.093455 17.0
210.124543 25.0
213.074265 26.0
214.066372 18.0
215.032069 41.0
215.076589 45.0
215.092399 51.0
216.079107 29.0
217.081074 26.0
218.050631 17.0
218.099811 26.0
220.074696 15.0
221.116443 33.0
221.152873 15.0
222.13001 26.0
225.093452 43.0
227.089347 60.0
227.105577 24.0
228.092824 30.0
229.083662 25.0
230.101929 18.0
231.059896 30.0
233.080511 27.0
234.127088 31.0
237.09383 25.0
239.026995 29.0
239.087585 19.0
242.086997 19.0
243.089444 36.0
244.115381 47.0
245.118929 19.0
246.129146 13.0
247.129133 10.0
248.989848 22.0
251.031363 21.0
251.071723 51.0
253.059387 38.0
253.084297 75.0
255.061132 22.0
256.113579 19.0
259.078841 24.0
265.017545 43.0
266.018423 21.0
267.09478 19.0
269.083694 22.0
274.114231 20.0
276.073726 9.0
277.070763 24.0
279.068587 49.0
280.059555 20.0
281.052262 97.0
282.01054 23.0
283.049537 35.0
283.089087 28.0
285.040651 38.0
286.105099 74.0
289.080471 24.0
291.069225 27.0
292.079573 28.0
293.07658 58.0
294.142467 21.0
295.031925 34.0
295.099214 80.0
296.099672 21.0
299.124724 11.0
301.047418 35.0
303.032543 33.0
303.064953 22.0
305.010508 37.0
305.075508 25.0
306.019015 92.0
307.024052 76.0
307.060122 46.0
309.056307 20.0
309.116607 32.0
313.187736 13.0
315.069811 53.0
317.076145 30.0
319.0521 27.0
319.07483 41.0
319.09409 34.0
321.044705 25.0
321.207974 29.0
322.091702 18.0
323.050589 21.0
326.105571 10.0
327.084579 9.0
329.070103 17.0
331.091948 26.0
332.176575 12.0
333.039513 48.0
333.080622 31.0
334.0808 15.0
335.048387 21.0
335.094987 31.0
337.117232 25.0
339.080606 14.0
341.114841 17.0
343.084346 32.0
343.113375 49.0
344.075773 25.0
345.07229 26.0
345.11413 101.0
346.044728 36.0
347.055015 35.0
347.106125 86.0
348.057632 54.0
349.069039 112.0
349.096509 75.0
350.070907 41.0
351.083384 32.0
351.094394 14.0
353.177188 21.0
355.129483 28.0
357.076068 55.0
357.111228 18.0
358.041155 31.0
358.052265 40.0
359.065083 42.0
359.094803 53.0
359.128192 48.0
360.06819 24.0
361.074537 153.0
362.080425 109.0
363.085852 55.0
365.104616 11.0
369.117546 139.0
370.119493 19.0
371.10771 72.0
371.13036 76.0
372.076428 28.0
373.072915 52.0
373.116435 200.0
373.133465 69.0
374.157902 30.0
375.08887 40.0
375.141999 36.0
377.174954 137.0
379.119929 20.0
381.062244 44.0
383.116898 36.0
383.130328 105.0
384.179885 16.0
385.146313 81.0
386.11008 52.0
387.140597 36.0
389.118802 43.0
389.132322 66.0
391.117547 21.0
391.185356 15.0
395.075846 17.0
397.14445 69.0
398.140718 38.0
399.089295 56.0
399.130405 99.0
399.157805 104.0
400.070342 20.0
400.097772 342.0
401.10559 863.0
402.100917 43.0
402.114647 35.0
404.124802 139.0
405.131729 20.0
407.141463 21.0
409.106668 24.0
410.123745 51.0
411.148073 46.0
412.16571 45.0
413.172657 753.0
414.109065 383.0
415.114402 552.0
416.118939 28.0
416.170919 36.0
417.134717 30.0
419.111791 11.0
419.153911 17.0
421.121706 14.0
423.132381 19.0
425.143825 40.0
426.144242 37.0
427.11751 63.0
427.1418 91.0
427.1924 143.0
428.126327 141.0
429.122144 340.0
431.066379 29.0
431.174169 26.0
433.123044 84.0
437.150743 24.0
437.210133 22.0
439.147967 39.0
439.178757 62.0
440.127725 74.0
440.201705 32.0
441.157972 263.0
441.164132 1164.0
443.118927 103.0
443.156067 46.0
443.195227 35.0
444.200164 28.0
445.129731 61.0
445.152461 87.0
445.208281 49.0
447.182366 11.0
449.119311 41.0
449.148361 46.0
451.141555 35.0
451.176925 31.0
451.228955 34.0
452.207532 38.0
453.1955 54.0
453.20384 191.0
454.192877 36.0
455.151645 72.0
455.174654 194.0
456.157472 25.0
456.186772 27.0
457.195829 41.0
461.121168 64.0
461.205308 27.0
463.168133 8.0
465.141458 28.0
465.173168 48.0
467.169802 60.0
467.188872 58.0
467.222752 88.0
468.15915 19.0
469.155877 48.0
469.177087 123.0
469.194087 66.0
470.187674 19.0
471.110002 25.0
471.150412 73.0
473.123616 70.0
473.166216 160.0
473.196056 32.0
477.212895 24.0
480.202877 13.0
480.230767 17.0
481.214474 74.0
481.240284 128.0
482.173392 105.0
483.182789 2085.0
484.188917 1295.0
485.196094 896.0
487.146559 39.0
488.178446 60.0
489.185463 104.0
491.217708 27.0
493.188952 30.0
493.201992 23.0
494.24245 27.0
495.233877 117.0
495.255667 348.0
496.263384 279.0
497.169442 111.0
497.195662 80.0
497.267741 33.0
498.172529 18.0
499.137246 274.0
500.183934 20.0
501.187871 122.0
503.174586 91.0
507.203935 30.0
509.209149 74.0
509.229049 84.0
510.237587 32.0
511.167394 25.0
511.220554 80.0
513.142669 54.0
513.160429 94.0
514.159576 16.0
515.190763 34.0
517.189408 491.0
519.272292 12.0
521.236337 25.0
522.241034 18.0
523.179442 46.0
523.235482 465.0
523.246642 421.0
524.221859 38.0
524.257749 170.0
525.195736 55.0
525.272096 24.0
526.192984 41.0
526.226744 26.0
526.267143 59.0
527.170951 49.0
527.191211 77.0
527.213741 102.0
529.185966 379.0
535.229039 29.0
537.213894 72.0
537.225244 85.0
538.211141 31.0
539.154689 33.0
539.200219 189.0
539.220659 146.0
539.263879 30.0
540.210646 26.0
541.176473 21.0
542.241221 19.0
543.222608 20.0
545.183353 33.0
545.219913 100.0
547.211787 14.0
549.241692 80.0
550.291439 29.0
551.238576 159.0
552.248764 50.0
553.255231 289.0
554.221108 56.0
555.231666 64.0
557.23941 32.0
557.27408 22.0
560.240442 8.0
561.314479 8.0
563.249464 30.0
564.196122 19.0
565.185499 67.0
565.220409 144.0
566.231636 62.0
567.197094 129.0
567.218083 699.0
568.212411 153.0
569.219298 21.0
570.222415 47.0
571.238093 104.0
575.199512 23.0
575.267622 21.0
576.247849 32.0
576.264269 35.0
577.240647 25.0
577.278296 65.0
578.264874 37.0
578.302594 50.0
579.292451 118.0
579.308931 261.0
581.220366 189.0
582.229213 165.0
583.2272 889.0
585.249285 58.0
585.284875 28.0
591.255679 28.0
591.310489 19.0
593.251154 61.0
593.258304 147.0
595.235588 361.0
595.257068 139.0
597.254443 31.0
600.313215 17.0
605.291901 99.0
606.297329 134.0
607.303606 786.0
608.269613 32.0
613.26655 8.0
613.27143 36.0
619.268424 24.0
621.254378 34.0
621.315418 37.0
622.287636 131.0
623.304603 1694.0
633.190016 24.0
633.286146 103.0
633.337906 94.0
635.257391 37.0
635.282051 24.0
636.265138 23.0
647.949377 16.0
648.932224 40.0
649.146883 43.0
649.279143 151.0
650.27304 166.0
650.27798 469.0
651.295128 10440.0

