>compound 
>formula C17H18O8
>parentmass 351.1074485367001
>ionization [M + H]+
>instrumentation Unknown (LCMS)
>source file:/Users/fanzhoukong/Documents/GitHub/Libgen/data/EAD_PFP/0_unknown_/spectrum.ms
>quality UNKNOWN

>ms2peaks
121.027858 38.0
126.045993 177.0
127.054344 850.0
128.060045 1607.0
129.063056 150.0
129.069736 427.0
130.042047 47.0
131.048268 1239.0
132.016729 85.0
132.05163 41.0
132.06176 85.0
133.027191 77.0
133.054301 272.0
133.064461 300.0
134.040322 77.0
137.075345 61.0
139.055167 552.0
141.059669 90.0
141.070139 293.0
142.04336 47.0
143.052721 90.0
144.055072 40.0
145.047963 110.0
145.065663 133.0
147.040406 60.0
153.071352 48.0
155.047204 39.0
157.065196 200.0
158.036587 86.0
159.044338 581.0
160.05526 185.0
161.059471 3031.0
162.031902 372.0
163.038523 377.0
164.062074 66.0
165.019595 4078.0
166.059436 52.0
166.077106 61.0
167.053147 324.0
167.068327 146.0
168.054908 528.0
169.066029 559.0
170.03418 152.0
170.10062 36.0
171.039711 377.0
171.046121 2182.0
172.052052 94.0
173.040304 1279.0
173.057064 523.0
174.065015 194.0
175.044766 3555.0
176.045487 85.0
176.053277 116.0
177.056848 792.0
178.026699 148.0
179.03458 879.0
180.087361 41.0
181.065442 1026.0
182.072623 65.0
183.045464 630.0
184.055475 547.0
185.062916 3786.0
186.030337 78.0
187.040509 3092.0
188.04936 150.0
189.046111 8240.0
190.026592 178.0
191.038033 101.0
191.071893 65.0
192.039964 94.0
192.095624 61.0
193.055385 31.0
193.066265 92.0
194.100786 33.0
195.036807 129.0
195.046377 184.0
196.055998 128.0
197.055839 128.0
197.058579 991.0
198.03617 122.0
199.036901 362.0
199.039681 2268.0
200.047082 290.0
201.054264 3358.0
202.063975 242.0
203.069236 2455.0
204.039207 210.0
205.047958 765.0
207.03062 759.0
208.042501 105.0
209.052602 98.0
209.062502 1422.0
210.066543 209.0
210.076483 47.0
211.045944 774.0
211.061604 939.0
212.046175 621.0
213.055916 6596.0
214.062328 430.0
215.038059 2270.0
215.049549 4657.0
216.04049 234.0
217.051021 5677.0
218.021972 340.0
219.079163 51.0
221.052655 163.0
223.040837 585.0
224.050008 95.0
225.055559 236.0
226.03685 45.0
226.06337 133.0
227.069001 2248.0
228.044333 212.0
229.052884 7671.0
230.062155 333.0
230.313345 69.0
230.408505 56.0
231.069196 6997.0
232.033657 78.0
233.044998 417.0
235.06827 63.0
237.056522 3392.0
238.060593 100.0
238.080243 74.0
239.048614 201.0
239.060734 318.0
240.043235 184.0
240.260316 35.0
241.055116 7166.0
242.058498 843.0
243.048649 165.0
243.063909 722.0
244.03623 790.0
245.051901 199.0
247.061853 145.0
248.171754 33.0
253.047409 32.0
255.064792 2865.0
256.074923 287.0
257.043064 1125.0
258.041325 61.0
258.057075 128.0
258.200295 42.0
259.065226 14251.0
260.443557 42.0
260.835768 39.0
261.043068 44.0
263.1635 39.0
265.034102 74.0
265.050062 109.0
268.044025 102.0
269.079517 67.0
271.048389 51.0
271.058069 61.0
273.074611 496.0
274.084072 34.0
275.049893 407.0
275.058013 1592.0
277.069825 3761.0
279.120027 38.0
281.046389 49.0
283.066752 823.0
284.073003 44.0
284.647893 31.0
285.038064 47.0
286.047855 54.0
287.085976 95.0
289.062908 231.0
289.071238 695.0
296.068466 31.0
297.073937 265.0
299.052699 68.0
300.06155 50.0
301.073751 293.0
305.180755 45.0
307.155427 27.0
315.088146 838.0
316.095777 60.0
318.072189 164.0
319.08281 120.0
333.172875 65.0
333.185395 52.0
351.161695 164.0
351.178205 637.0

