>compound 
>formula C40H44O22
>parentmass 894.2662440486599
>ionization [M + H3N + H]+
>instrumentation Unknown (LCMS)
>source file:/Users/fanzhoukong/Documents/GitHub/Libgen/data/EAD_PFP/0_unknown_/spectrum.ms
>quality UNKNOWN

>ms2peaks
123.043129 402.0
126.047352 93.0
127.052382 222.0
128.062533 663.0
129.072224 155.0
130.065754 188.0
132.075536 38.0
133.051146 71.0
133.079406 47.0
133.102006 27.0
134.097297 40.0
135.042778 1049.0
137.028549 44.0
137.059529 79.0
139.05425 350.0
140.049471 36.0
141.068042 220.0
142.078602 62.0
143.047093 135.0
143.056463 117.0
143.082233 135.0
144.061194 33.0
144.078824 50.0
145.057624 43.0
145.072964 139.0
160.051764 36.0
161.060915 76.0
163.053746 146.0
164.050987 49.0
165.070138 538.0
166.070988 86.0
167.079939 155.0
168.05891 228.0
169.06368 528.0
170.072701 167.0
171.057842 341.0
171.082192 323.0
172.052242 70.0
173.057253 409.0
174.060024 44.0
174.066494 49.0
175.039774 75.0
175.060514 67.0
175.089014 92.0
176.056065 90.0
176.061265 177.0
177.054426 50.0
177.070086 86.0
178.076556 234.0
179.054417 65.0
179.081937 134.0
180.067808 216.0
180.073058 245.0
181.068258 3929.0
182.097909 38.0
182.191779 115.0
183.04168 140.0
184.049 385.0
185.060411 246.0
187.043352 86.0
188.065653 60.0
189.058404 415.0
190.078074 138.0
191.001655 172.0
191.069365 52.0
191.088315 104.0
192.079496 47.0
192.982056 99.0
193.013366 90.0
194.961728 45.0
195.086228 57.0
196.058898 85.0
197.062879 962.0
198.06804 404.0
199.07713 2600.0
200.045851 93.0
201.055822 260.0
202.072483 191.0
203.088933 127.0
203.136383 103.0
204.148514 39.0
205.062135 77.0
205.074755 81.0
206.087465 56.0
207.035006 111.0
207.047686 97.0
208.052547 87.0
209.058397 1188.0
210.069528 87.0
211.050359 68.0
212.046299 57.0
213.06178 210.0
214.061011 134.0
215.072671 188.0
215.079841 170.0
216.076622 205.0
217.054043 188.0
217.081463 64.0
217.093013 131.0
218.092983 49.0
219.072054 60.0
221.099375 55.0
223.074617 63.0
225.051268 173.0
226.062019 263.0
227.070609 1840.0
228.04001 98.0
228.05037 83.0
229.048541 565.0
230.057801 49.0
231.069312 87.0
233.058573 33.0
234.064634 28.0
235.074385 70.0
237.058126 47.0
237.166746 38.0
239.085067 58.0
241.052179 58.0
241.087169 59.0
242.060099 34.0
243.05943 209.0
244.074581 1800.0
245.081151 2328.0
245.090351 8433.0
246.089752 63.0
246.452562 72.0
247.074253 95.0
249.075454 147.0
252.076036 92.0
253.088017 128.0
257.079259 45.0
258.06974 54.0
259.070021 63.0
259.087351 54.0
261.076392 70.0
263.060283 123.0
265.016615 32.0
265.054885 36.0
267.085856 262.0
269.089217 78.0
273.05526 66.0
277.089443 68.0
278.093194 34.0
280.068475 33.0
281.053005 66.0
283.050287 38.0
283.099727 46.0
284.092858 131.0
285.094358 349.0
287.09265 53.0
289.091251 24.0
291.066712 40.0
293.080754 49.0
295.096685 49.0
301.089059 47.0
303.07435 41.0
305.083232 96.0
307.097053 27.0
309.060654 862.0
311.092726 26.0
319.091541 28.0
319.095051 38.0
321.077262 51.0
323.090294 40.0
325.109615 84.0
329.106658 43.0
337.109313 24.0
339.085294 48.0
341.105046 25.0
349.088481 37.0
351.091872 65.0
353.104684 45.0
363.087051 51.0
367.073903 32.0
369.098075 68.0
370.107535 29.0
371.112726 183.0
380.127072 12.0
381.097963 111.0
386.096016 23.0
389.127878 261.0
399.125925 24.0
407.12908 611.0
412.083643 21.0
415.425316 12.0
427.119053 36.0
430.080045 219.0
430.090185 403.0
431.100496 928.0
445.123116 25.0
447.142597 136.0
447.161237 261.0
457.115864 14.0
459.099355 59.0
471.111813 135.0
473.127534 58.0
491.132766 177.0
499.106372 12.0
509.144829 45.0
525.143989 12.0
552.122097 152.0
553.142298 1455.0
569.191259 32.0
592.132684 27.0
593.160575 126.0
633.165542 25.0
695.158263 12.0
714.190686 44.0
715.188487 72.0
731.208207 164.0
732.164818 50.0
760.221297 129.0
848.431436 13.0
863.242056 17.0
863.262196 27.0
865.269457 24.0
892.249515 86.0
893.247626 85.0
894.260937 3006.0
894.281437 5437.0

