>compound 
>formula C15H20O3
>parentmass 249.14852550331003
>ionization [M + H]+
>instrumentation Unknown (LCMS)
>source file:/Users/fanzhoukong/Documents/GitHub/Libgen/data/EAD_PFP/0_unknown_/spectrum.ms
>quality UNKNOWN

>ms2peaks
50.01537 87.0
51.023567 367.0
52.031235 37.0
53.038762 118.0
54.03435 6.0
55.045728 7.0
55.055177 216.0
55.934535 16.0
56.051085 9.0
56.963463 6.0
57.035203 15.0
59.050968 58.0
60.985393 68.0
62.01636 38.0
63.023298 145.0
64.022675 6.0
65.039393 929.0
66.03466 12.0
66.04501 48.0
67.053528 179.0
68.050286 8.0
68.994993 77.0
69.036493 6.0
71.050838 13.0
72.937623 6.0
74.015811 38.0
75.022968 41.0
76.030106 42.0
77.039653 1241.0
78.044621 114.0
79.054348 527.0
80.053916 15.0
81.068573 297.0
83.047429 35.0
85.028464 423.0
86.015011 5.0
89.040244 121.0
90.043231 10.0
91.056509 1236.0
92.057586 127.0
93.069824 274.0
94.062881 9.0
95.086049 282.0
95.953467 15.0
96.083057 29.0
97.063064 33.0
97.948162 6.0
99.046779 25.0
100.018237 5.0
101.040714 12.0
102.045622 62.0
103.056499 141.0
104.062367 18.0
105.070114 764.0
106.066562 21.0
106.078672 8.0
107.075829 9.0
107.084959 178.0
108.058307 7.0
108.070527 15.0
108.088857 10.0
109.065725 107.0
111.04504 9.0
111.08324 10.0
113.002575 15.0
114.042152 5.0
115.05706 749.0
116.060637 77.0
117.070685 179.0
118.059572 11.0
118.071282 31.0
119.08575 495.0
120.083087 29.0
121.067335 85.0
121.072725 65.0
121.093205 74.0
121.101835 39.0
122.077253 9.0
123.04354 22.0
123.0794 31.0
124.074748 6.0
125.041225 8.0
125.063135 42.0
125.078475 6.0
126.048853 41.0
126.101643 14.0
127.05389 228.0
128.062918 1069.0
129.070385 468.0
130.069483 18.0
130.076203 117.0
131.0747 25.0
131.0848 184.0
132.072538 22.0
132.081538 10.0
133.066225 17.0
133.077525 22.0
133.100115 80.0
135.070481 16.0
135.086431 19.0
137.061046 903.0
139.052311 34.0
139.4199 6.0
140.052178 7.0
141.071906 192.0
141.926054 9.0
142.076643 83.0
143.086121 341.0
144.081538 16.0
144.092108 20.0
145.091026 77.0
145.099276 156.0
145.969094 11.0
147.081361 157.0
147.095611 42.0
147.115821 12.0
147.968979 15.0
149.060136 58.0
149.097206 16.0
150.044884 9.0
151.064181 42.0
151.077411 78.0
152.062769 123.0
153.053726 37.0
153.064636 263.0
154.080734 77.0
155.057511 15.0
155.068481 32.0
155.086771 143.0
156.085089 39.0
156.093649 162.0
157.063266 26.0
157.079236 146.0
157.100106 256.0
158.072834 32.0
159.079451 47.0
159.089341 64.0
159.100471 58.0
159.115301 91.0
160.050839 6.0
160.091749 20.0
160.121509 6.0
161.094817 219.0
161.117196 56.0
162.097274 9.0
162.125954 7.0
163.004042 7.0
163.072822 31.0
163.081582 18.0
163.104102 8.0
164.061349 29.0
165.064147 37.0
165.069207 180.0
166.066254 14.0
167.029582 9.0
167.073912 65.0
168.085889 29.0
169.013027 6.0
169.074167 13.0
169.094557 30.0
170.110064 134.0
170.914682 15.0
171.081192 261.0
171.100422 99.0
171.115802 13.0
172.089799 34.0
172.103949 10.0
173.096207 145.0
174.068085 10.0
174.083585 19.0
174.104264 10.0
175.076352 117.0
175.089322 70.0
175.108762 99.0
176.06284 38.0
176.08495 6.0
177.046897 39.0
177.069047 10.0
177.080787 16.0
177.089927 21.0
178.078125 46.0
179.067812 10.0
179.083522 48.0
180.09308 61.0
180.986808 8.0
181.086987 20.0
182.073065 10.0
182.090245 18.0
183.068442 28.0
183.083032 28.0
183.117502 20.0
184.0878 25.0
184.11705 6.0
185.129987 710.0
187.099883 18.0
187.111952 82.0
187.134712 12.0
188.06323 9.0
188.07934 10.0
188.10889 12.0
188.11697 25.0
189.088298 70.0
189.104448 48.0
189.127358 84.0
190.093185 9.0
191.000553 20.0
191.084493 11.0
191.098043 8.0
191.106153 35.0
192.983658 22.0
193.088448 18.0
193.106148 6.0
194.092995 9.0
195.059093 154.0
195.085093 10.0
195.098773 83.0
195.115193 7.0
196.1099 7.0
197.096118 37.0
198.102755 121.0
199.120223 5.0
201.087978 12.0
201.132438 28.0
202.078286 8.0
203.144993 247.0
204.108141 12.0
205.087598 10.0
206.096106 16.0
207.038033 25.0
207.131083 7.0
208.034381 6.0
209.027449 20.0
209.050108 22.0
210.992214 6.0
211.053404 5.0
211.117463 6.0
213.069119 82.0
213.091999 159.0
213.100579 198.0
213.107738 272.0
213.122028 230.0
214.092766 6.0
215.105894 42.0
216.118581 9.0
217.068659 6.0
217.129289 8.0
219.107034 7.0
219.138944 5.0
220.084001 5.0
220.113071 5.0
221.137439 13.0
221.152009 24.0
223.096734 6.0
227.060424 13.0
229.121349 12.0
230.101067 16.0
231.078394 88.0
231.106694 177.0
231.130514 88.0
231.136464 297.0
233.117049 8.0
242.986265 18.0
249.15287 492.0

