>compound 
>formula C23H26O7
>parentmass 432.2016741749701
>ionization [M + H3N + H]+
>instrumentation Unknown (LCMS)
>source file:/Users/fanzhoukong/Documents/GitHub/Libgen/data/EAD_PFP/0_unknown_/spectrum.ms
>quality UNKNOWN

>ms2peaks
103.0598 52.0
115.051077 125.0
115.060527 197.0
117.069946 50.0
119.028346 62.0
121.066575 158.0
126.060164 74.0
127.060833 82.0
128.064353 134.0
133.029252 128.0
135.043471 180.0
137.05907 200.0
139.05148 184.0
140.06059 51.0
141.067549 258.0
141.074559 1029.0
142.069959 142.0
142.082799 375.0
143.086439 315.0
144.057178 354.0
145.052418 267.0
145.068928 680.0
145.083088 372.0
147.047228 273.0
147.063858 374.0
147.084058 94.0
148.056307 157.0
149.028167 298.0
149.048487 575.0
149.061657 1057.0
150.030807 97.0
150.040407 318.0
151.050066 888.0
151.054866 1442.0
152.066706 6218.0
153.072236 3392.0
154.079846 887.0
155.085885 1330.0
156.063385 60.0
156.093975 131.0
157.069725 477.0
157.094285 141.0
158.073144 404.0
159.066184 315.0
159.083474 465.0
160.085874 99.0
160.095794 111.0
161.049134 228.0
161.059074 386.0
162.056433 111.0
162.485723 158.0
162.503203 419.0
162.515693 472.0
162.526923 233.0
163.045623 61224.0
164.042823 410.0
164.070443 1869.0
165.070782 7233.0
165.969382 277.0
166.081722 562.0
166.808432 370.0
167.081822 348.0
167.086892 1289.0
168.058272 488.0
169.066861 840.0
170.070781 236.0
173.09782 227.0
174.04642 270.0
175.11426 71.0
177.014639 181.0
177.066779 345.0
178.082369 1700.0
179.087789 1933.0
180.071038 1237.0
181.066208 2869.0
182.064118 577.0
182.076028 1686.0
183.084657 1116.0
184.056237 201.0
185.075677 357.0
185.099657 690.0
186.099267 59.0
187.074736 193.0
187.085466 316.0
188.106536 166.0
189.068406 365.0
189.080526 199.0
190.096205 132.0
191.083465 245.0
191.101065 598.0
191.111915 323.0
192.092285 151.0
193.076545 184.0
193.094225 168.0
194.066024 186.0
194.074224 672.0
195.082674 3151.0
196.067694 281.0
196.095124 503.0
197.068943 916.0
197.077183 2827.0
197.086803 1333.0
198.072743 3787.0
199.073543 427.0
199.097043 153.0
200.086583 195.0
201.075802 161.0
201.089692 621.0
202.078602 302.0
203.078312 952.0
203.088072 763.0
203.096452 882.0
203.109012 928.0
204.062281 76.0
204.090271 166.0
205.062661 218.0
205.087921 249.0
206.083781 257.0
207.084871 939.0
208.0785 314.0
208.09121 477.0
209.06318 1055.0
209.07734 1328.0
209.09858 406.0
210.07005 3078.0
211.080779 9423.0
212.086769 1485.0
213.089459 2189.0
214.064399 58.0
215.070308 320.0
215.090438 431.0
215.104788 261.0
216.098738 187.0
217.086318 149.0
217.107948 104.0
218.080467 148.0
218.099287 611.0
218.115187 238.0
218.372777 44.0
219.107337 19177.0
220.000037 104.0
220.071257 152.0
220.095957 98.0
221.076597 548.0
221.098447 419.0
222.068156 191.0
222.088586 146.0
222.225836 102.0
223.079496 2707.0
224.088756 1482.0
225.094385 7917.0
226.062505 1458.0
226.716945 109.0
227.085855 1343.0
228.068615 247.0
228.084875 292.0
229.094974 81.0
229.120204 86.0
229.565254 52.0
231.105524 571.0
232.090943 121.0
232.116323 154.0
233.069513 172.0
233.120353 167.0
233.126353 322.0
233.133823 442.0
234.065103 47.0
234.071093 142.0
235.083853 673.0
236.049122 263.0
236.077722 171.0
236.089752 406.0
236.113832 163.0
237.081222 656.0
237.096302 1536.0
238.080812 260.0
238.094412 777.0
238.100472 711.0
239.070381 2802.0
239.077941 2866.0
240.071111 488.0
240.081741 12875.0
241.090651 9440.0
241.836571 73.0
242.062081 169.0
242.089511 264.0
243.1057 2074.0
245.07851 58.0
245.09845 98.0
245.10919 120.0
246.082509 84.0
246.099409 131.0
246.108629 120.0
246.120929 109.0
247.050069 67.0
247.100859 154.0
248.102829 184.0
249.083609 118.0
249.092879 490.0
250.084928 186.0
250.103518 484.0
250.122098 307.0
251.075818 1720.0
252.073368 248.0
252.079578 326.0
253.054158 1481.0
253.072858 9136.0
254.068097 2467.0
254.643037 171.0
255.104397 37689.0
256.080097 169.0
256.130267 153.0
256.362347 106.0
257.079666 89.0
257.090646 217.0
259.103526 85.0
259.120896 52.0
261.110025 260.0
261.119515 409.0
261.133775 458.0
262.101885 186.0
262.119335 181.0
263.078165 317.0
263.106765 525.0
264.092874 116.0
264.116744 339.0
265.091964 321.0
265.143014 412.0
265.162154 639.0
266.040234 102.0
266.070594 137.0
266.097764 220.0
267.071824 2423.0
267.571573 82.0
268.074963 249.0
268.087783 218.0
268.124673 168.0
268.190443 136.0
268.235363 79.0
268.610943 105.0
269.086373 46312.0
270.091653 255.0
270.160903 159.0
270.495923 197.0
270.737652 133.0
271.105262 5359.0
272.070692 97.0
272.461862 134.0
276.232731 265.0
277.097941 205.0
278.12296 299.0
278.13276 331.0
278.14256 644.0
279.14335 6603.0
280.07539 176.0
280.12296 68.0
281.08128 463.0
281.08622 807.0
281.11576 451.0
282.088969 98.0
283.055579 126.0
283.091829 275.0
283.123149 234.0
284.060189 74.0
285.076518 953.0
285.079808 2874.0
287.096288 30310.0
288.277658 70.0
291.108827 150.0
292.388856 68.0
293.161566 3825.0
294.079776 115.0
294.096566 105.0
294.116736 148.0
294.130166 200.0
295.081856 175.0
295.097016 299.0
295.120576 653.0
296.153075 1275.0
297.114805 244.0
297.155305 132.0
298.084815 412.0
298.111885 319.0
299.093694 50654.0
300.082214 175.0
300.401334 99.0
300.571164 323.0
300.732514 295.0
301.085974 77.0
303.531863 287.0
305.124603 23389.0
307.095642 101.0
307.112792 275.0
309.128112 219.0
309.172912 483.0
310.435061 55.0
311.177671 10393.0
313.11612 51.0
316.12564 51.0
321.124938 96.0
323.123988 361.0
323.146908 291.0
325.150477 4911.0
329.798576 55.0
336.156914 35.0
337.150874 18075.0
338.144523 49.0
339.141413 120.0
340.754353 23.0
353.137989 53.0
355.151109 1074.0
355.158499 12836.0
359.198227 309.0
372.183634 89.0
372.200664 81.0

