>compound 
>formula C35H54O9
>parentmass 641.3660043165501
>ionization [M + Na]+
>instrumentation Unknown (LCMS)
>source file:/Users/fanzhoukong/Documents/GitHub/Libgen/data/EAD_PFP/0_unknown_/spectrum.ms
>quality UNKNOWN

>ms2peaks
113.002963 22.0
115.055361 273.0
117.065799 52.0
118.079138 22.0
125.017572 22.0
127.052131 115.0
128.06226 299.0
129.071949 46.0
130.067728 46.0
145.102165 41.0
149.089372 64.0
151.05388 133.0
152.059679 355.0
153.065189 156.0
154.063048 165.0
155.083677 107.0
156.083206 118.0
157.072435 102.0
159.082503 128.0
160.108443 51.0
161.059332 89.0
163.0509 69.0
164.056909 51.0
165.066018 192.0
166.075687 96.0
167.082107 192.0
169.083685 177.0
175.11068 75.0
178.077467 184.0
179.080236 197.0
180.092396 169.0
181.090265 111.0
182.100154 120.0
183.116813 161.0
185.131981 38.0
187.14611 89.0
188.067919 23.0
189.079528 84.0
190.077647 142.0
191.068926 66.0
192.984345 70.0
193.101395 77.0
195.118613 60.0
197.132581 124.0
199.108479 24.0
202.081757 98.0
203.098236 52.0
204.087865 55.0
205.077094 83.0
206.088414 142.0
207.030303 114.0
210.09318 97.0
211.146669 55.0
219.112142 53.0
221.128011 69.0
225.125707 29.0
233.137291 77.0
235.127909 94.0
236.100788 52.0
239.164795 70.0
243.113842 47.0
247.150679 45.0
249.159907 23.0
251.144665 147.0
254.195133 49.0
255.173802 65.0
256.177861 57.0
263.140715 65.0
265.020784 90.0
266.992362 56.0
271.151028 49.0
271.192958 169.0
277.131153 89.0
281.05232 214.0
283.161698 25.0
289.155523 64.0
290.147502 96.0
291.176331 127.0
295.196958 197.0
297.135716 51.0
303.164001 73.0
303.206631 23.0
307.207908 117.0
309.158076 54.0
311.100604 60.0
313.208693 197.0
313.215653 430.0
315.186511 65.0
323.193434 66.0
328.1966 37.0
333.202426 48.0
341.201929 48.0
347.179404 23.0
349.195602 94.0
351.22685 64.0
353.210589 89.0
359.225044 63.0
361.214452 126.0
367.189367 62.0
369.204465 634.0
373.237912 284.0
375.23913 107.0
377.243798 145.0
379.263357 67.0
386.241381 24.0
387.22966 24.0
388.257799 24.0
393.218915 75.0
395.214483 68.0
395.226173 238.0
399.17582 53.0
400.223609 83.0
401.276708 51.0
403.241486 50.0
404.278835 96.0
407.264463 158.0
408.237702 78.0
409.231931 267.0
410.24719 111.0
411.257779 94.0
413.230858 117.0
415.204676 165.0
417.211204 132.0
419.252673 67.0
421.242811 187.0
422.24669 100.0
423.249739 1360.0
426.227647 65.0
427.245556 522.0
431.256053 24.0
431.272313 156.0
431.294712 125.0
433.278511 242.0
435.260749 194.0
435.287329 111.0
436.277108 127.0
437.268007 150.0
439.247016 89.0
441.220214 99.0
442.231143 24.0
447.255429 98.0
448.293968 55.0
449.302577 334.0
450.314386 139.0
451.279476 122.0
451.312766 273.0
452.297655 127.0
453.300344 162.0
455.231652 80.0
456.245931 99.0
457.26552 171.0
460.249188 24.0
463.274155 111.0
463.305795 24.0
465.289984 183.0
467.312292 227.0
468.322971 790.0
469.28168 67.0
473.309637 49.0
475.276675 123.0
475.304415 304.0
476.291654 187.0
477.296993 526.0
477.303433 1776.0
479.302332 50.0
480.312991 85.0
483.239408 121.0
484.752347 24.0
486.336756 262.0
489.294453 93.0
490.302572 98.0
491.305252 1942.0
492.321981 1359.0
493.32451 260.0
497.250957 62.0
507.303928 885.0
508.317177 750.0
509.304936 304.0
509.322606 571.0
511.258915 51.0
521.293026 102.0
523.314624 87.0
524.310114 135.0
525.286303 649.0
526.299432 55.0
535.297774 45.0
536.313643 105.0
537.316873 2114.0
539.301061 229.0
543.287327 53.0
551.319911 114.0
552.30716 107.0
553.320579 140.0
554.330348 69.0
565.312089 174.0
566.283768 82.0
567.295977 1409.0
579.331057 204.0
581.313415 603.0
582.329474 115.0
583.322754 61.0
595.358453 95.0
597.348802 113.0
597.391902 199.0
605.295275 36.0
606.402024 57.0
610.304241 24.0
611.3162 114.0
613.323338 65.0
618.382414 145.0
622.34976 49.0
623.34482 498.0
623.35702 403.0
625.332368 1260.0
626.346947 194.0
627.342736 184.0
638.338637 53.0
639.338946 393.0
640.359875 2421.0
641.364274 12725.0

