>compound 
>formula C22H22O10
>parentmass 447.1285779047601
>ionization [M + H]+
>instrumentation Unknown (LCMS)
>source file:/Users/fanzhoukong/Documents/GitHub/Libgen/data/EAD_PFP/0_unknown_/spectrum.ms
>quality UNKNOWN

>ms2peaks
50.015378 83.0
51.022889 347.0
52.02631 8.0
52.03055 19.0
53.039512 56.0
54.032233 7.0
55.053774 217.0
56.052616 10.0
57.069307 9.0
57.936218 6.0
59.928271 5.0
60.984732 50.0
62.014154 15.0
63.023425 107.0
64.021236 10.0
64.026726 9.0
64.030636 22.0
65.037948 497.0
66.039579 33.0
66.045949 36.0
67.05207 98.0
68.028632 6.0
68.994343 130.0
70.061954 6.0
71.049376 20.0
72.080297 9.0
73.006438 7.0
74.01517 19.0
75.020641 32.0
76.031182 39.0
77.039884 573.0
78.041395 75.0
79.053716 265.0
80.048028 16.0
80.052408 18.0
81.047669 6.0
81.069719 81.0
82.0686 12.0
83.048592 16.0
83.060202 5.0
83.086092 6.0
84.080213 11.0
85.028754 10.0
85.063084 9.0
87.025837 10.0
88.029398 10.0
89.03964 148.0
90.044481 38.0
91.055902 785.0
92.055114 128.0
93.066385 53.0
94.063236 33.0
95.048198 12.0
95.084498 19.0
95.950959 7.0
96.082459 10.0
97.065371 15.0
97.949512 13.0
99.045213 14.0
99.079343 7.0
99.994134 10.0
101.041106 8.0
102.045037 39.0
103.051939 107.0
104.0498 22.0
105.071541 184.0
106.065993 14.0
106.072043 17.0
107.051944 28.0
108.080135 8.0
109.099947 26.0
111.011439 5.0
112.00659 12.0
113.000972 22.0
114.029033 6.0
115.054395 246.0
116.060076 50.0
117.053167 8.0
117.062707 50.0
117.068007 67.0
118.065399 32.0
119.08519 72.0
120.075021 12.0
120.081461 24.0
121.066783 14.0
121.102363 23.0
122.100514 10.0
123.045165 34.0
123.078855 11.0
124.082927 4.0
125.058208 10.0
125.098748 8.0
126.045009 32.0
126.90433 13.0
127.054451 102.0
128.049082 10.0
128.061282 261.0
129.066493 80.0
130.058905 14.0
130.065615 78.0
130.991196 19.0
131.050626 9.0
131.070806 10.0
131.082036 10.0
132.016837 6.0
132.071997 5.0
132.081017 7.0
132.087757 9.0
133.066819 259.0
135.115501 17.0
139.052947 23.0
140.052808 7.0
141.064389 46.0
141.926701 9.0
142.072621 15.0
143.064522 24.0
144.075143 9.0
144.084553 19.0
145.071635 9.0
145.099955 12.0
145.968576 15.0
147.063047 9.0
147.082057 11.0
147.963709 11.0
149.02615 10.0
149.068 13.0
149.09552 18.0
149.1314 8.0
150.045571 17.0
150.063581 6.0
151.037203 13.0
151.050433 46.0
151.072113 6.0
151.111843 17.0
152.058644 35.0
152.062274 110.0
153.056875 20.0
153.066555 84.0
154.066867 24.0
154.077827 26.0
155.067998 10.0
155.072878 32.0
155.085068 31.0
156.073579 25.0
156.084599 19.0
157.066461 7.0
157.084881 12.0
157.102071 13.0
158.087122 13.0
158.099452 23.0
159.080213 13.0
159.091314 15.0
159.116034 25.0
160.085065 5.0
160.103645 11.0
161.096826 16.0
161.131636 16.0
162.051897 6.0
162.135468 6.0
162.997299 6.0
163.052319 40.0
163.059849 13.0
163.072339 13.0
164.05835 23.0
165.071232 120.0
166.074623 31.0
167.031654 22.0
167.058244 6.0
167.070894 54.0
167.087364 47.0
168.076526 29.0
169.071147 16.0
169.100437 13.0
170.059758 7.0
170.092998 19.0
171.06793 7.0
171.1038 25.0
171.11534 9.0
172.067481 5.0
172.073921 5.0
173.088012 5.0
173.131852 11.0
174.049514 7.0
174.072784 8.0
174.105084 11.0
174.994245 6.0
175.073305 12.0
175.110905 17.0
175.149785 12.0
176.063696 32.0
177.068608 16.0
177.127258 18.0
178.078979 27.0
178.96248 5.0
179.04767 6.0
179.06865 19.0
179.08439 20.0
179.10537 12.0
180.005861 11.0
180.062382 8.0
180.079472 17.0
181.069393 15.0
181.079953 30.0
181.102353 14.0
182.075254 5.0
182.095084 13.0
183.032226 5.0
183.083906 6.0
183.103786 7.0
183.114396 12.0
185.093568 12.0
185.108218 5.0
185.130868 7.0
186.06776 6.0
186.09982 8.0
186.13992 6.0
187.119541 7.0
188.058752 7.0
189.068984 29.0
189.126924 6.0
190.068445 9.0
191.004176 22.0
191.074586 7.0
192.984579 18.0
193.070339 12.0
193.085309 6.0
194.09257 15.0
194.10485 10.0
195.083292 8.0
195.099732 10.0
195.127092 6.0
196.105363 9.0
196.141023 10.0
197.061304 9.0
197.094324 15.0
197.125964 11.0
198.054066 8.0
199.110127 8.0
199.130857 11.0
199.148837 6.0
200.063678 10.0
200.092778 6.0
201.05423 16.0
201.11118 8.0
201.16536 5.0
202.077861 13.0
203.045462 6.0
203.085942 8.0
203.141792 12.0
204.079754 15.0
204.184714 5.0
205.074565 7.0
205.097005 17.0
205.157325 7.0
207.031998 65.0
208.033969 19.0
208.108859 5.0
209.08935 11.0
209.11061 5.0
210.067922 12.0
211.084303 5.0
211.131293 12.0
212.017584 5.0
212.137424 5.0
212.992936 8.0
213.123066 5.0
213.145936 8.0
215.046608 8.0
215.083958 13.0
216.04186 6.0
216.10954 5.0
217.088481 7.0
217.121671 6.0
218.082652 5.0
218.124602 6.0
219.099394 12.0
219.135644 6.0
219.154494 7.0
221.080246 6.0
221.115206 5.0
221.155987 8.0
223.059769 6.0
223.089039 7.0
223.134399 8.0
223.172439 11.0
225.046652 8.0
225.128962 7.0
226.063283 9.0
226.082433 5.0
227.070394 18.0
227.151595 6.0
228.069396 6.0
229.077987 4.0
229.106147 5.0
230.081368 6.0
231.06464 9.0
231.0974 5.0
232.096241 6.0
232.139511 10.0
233.112203 6.0
233.152573 12.0
234.157354 13.0
235.167285 12.0
236.153817 5.0
237.059428 6.0
238.128499 8.0
239.071221 259.0
240.064362 5.0
241.082383 9.0
242.072085 5.0
242.982846 7.0
243.111126 9.0
243.140166 5.0
243.205836 6.0
245.076309 6.0
247.166431 7.0
248.136113 5.0
248.990194 7.0
249.144794 11.0
251.112427 5.0
253.050379 36.0
254.168941 6.0
255.067762 21.0
256.077883 6.0
257.173255 9.0
258.198556 5.0
259.063487 8.0
259.151767 7.0
260.127299 12.0
261.12364 5.0
261.13786 5.0
261.987071 5.0
262.106001 6.0
262.150431 9.0
263.033033 6.0
265.016375 13.0
265.158335 6.0
266.022017 6.0
266.178637 8.0
267.050398 7.0
267.136858 6.0
267.200888 7.0
269.040761 6.0
271.056263 7.0
273.042046 7.0
273.137566 5.0
274.066037 9.0
274.189298 6.0
275.127709 7.0
275.166679 6.0
276.12304 5.0
277.211482 6.0
278.097843 5.0
279.123084 29.0
279.137824 6.0
281.051117 55.0
282.050508 12.0
283.053319 7.0
283.107729 5.0
283.130809 6.0
283.16212 5.0
285.075912 5.0
285.151992 5.0
287.054215 9.0
287.196945 7.0
288.112436 7.0
288.168956 5.0
289.195938 6.0
291.15837 5.0
293.127433 6.0
295.168786 10.0
295.224326 7.0
296.105307 6.0
297.129388 6.0
297.158108 6.0
299.059231 25.0
299.162601 7.0
301.070103 10.0
301.180604 8.0
302.078925 9.0
302.162355 7.0
303.050176 6.0
304.176768 6.0
305.139439 6.0
307.143132 5.0
309.041424 7.0
309.144784 6.0
310.049695 5.0
311.054427 13.0
311.215137 5.0
312.062518 6.0
313.06703 11.0
314.036701 6.0
315.068742 21.0
315.084372 19.0
315.186972 8.0
316.234824 8.0
317.082025 5.0
317.130885 10.0
317.209405 4.0
319.105248 6.0
319.133268 6.0
319.175258 7.0
319.194518 8.0
320.261259 3.0
323.084713 6.0
324.260255 10.0
325.033356 7.0
325.174656 8.0
327.087068 7.0
327.138468 7.0
328.05512 8.0
329.069041 10.0
329.149021 8.0
330.077402 11.0
331.024944 6.0
331.199624 6.0
333.040236 16.0
333.229777 5.0
334.242688 11.0
336.06301 6.0
337.073012 9.0
337.121572 5.0
337.146782 8.0
338.046743 8.0
339.032674 9.0
340.057976 24.0
341.045037 22.0
341.068567 66.0
342.028098 6.0
343.01257 10.0
343.0307 38.0
343.04702 33.0
344.054781 12.0
345.060332 5.0
345.105832 6.0
345.202303 8.0
347.090485 11.0
347.220095 5.0
348.144346 6.0
348.186407 5.0
349.238258 14.0
351.05118 15.0
351.11909 7.0
351.240241 8.0
351.260441 12.0
352.217662 11.0
353.065713 12.0
354.073314 9.0
355.080486 36.0
355.150616 6.0
357.062088 74.0
358.06981 63.0
359.075211 150.0
361.032584 6.0
361.209434 6.0
361.278314 5.0
362.196855 8.0
362.224845 4.0
365.247769 13.0
366.235071 5.0
367.203092 6.0
369.097745 17.0
369.141025 8.0
371.085967 17.0
371.099187 17.0
371.108617 30.0
373.09278 833.0
375.213143 5.0
375.253003 6.0
376.263224 7.0
379.193338 7.0
380.201249 6.0
381.063191 7.0
382.069722 12.0
383.303884 7.0
385.097286 9.0
385.208796 3.0
387.110739 17.0
387.220609 10.0
387.249539 10.0
389.088861 17.0
389.110131 5.0
393.233127 11.0
393.268097 14.0
393.281677 8.0
394.230288 11.0
395.041809 165.0
397.237252 5.0
398.206243 5.0
399.072705 32.0
400.079236 7.0
401.143907 6.0
401.194927 6.0
401.277358 9.0
403.15556 8.0
409.250418 7.0
411.192871 7.0
411.242521 33.0
411.258421 41.0
411.290191 25.0
412.069362 20.0
412.170772 6.0
412.246362 6.0
413.090143 10.0
414.098205 6.0
415.099546 355.0
417.087829 9.0
417.119819 6.0
419.157051 6.0
429.208545 19.0
429.222735 23.0
429.238975 62.0
429.255235 32.0
429.289725 31.0
431.081807 8.0
431.096027 42.0
432.105459 33.0
434.042171 3.0
445.116526 23.0
446.119458 14.0
446.146378 10.0
446.175338 33.0
447.135969 1559.0

