>compound 
>formula C22H34O5
>parentmass 396.27444519367
>ionization [M + H3N + H]+
>instrumentation Unknown (LCMS)
>source file:/Users/fanzhoukong/Documents/GitHub/Libgen/data/EAD_PFP/0_unknown_/spectrum.ms
>quality UNKNOWN

>ms2peaks
115.051459 139.0
115.055659 713.0
116.060286 137.0
117.068214 613.0
118.068791 99.0
119.087529 1272.0
121.078834 273.0
123.045349 232.0
123.121429 247.0
125.059474 182.0
127.05131 203.0
127.05573 369.0
128.064777 1459.0
129.071125 398.0
131.05975 131.0
131.07993 130.0
133.099755 51.0
133.106525 23.0
147.115402 144.0
147.120162 243.0
149.135087 464.0
151.073382 529.0
152.06595 473.0
153.069067 783.0
154.077885 423.0
155.086362 778.0
156.09568 229.0
157.103358 933.0
158.109345 266.0
159.119803 838.0
161.131678 1279.0
163.149953 617.0
165.067498 116.0
165.073798 725.0
166.078436 136.0
167.078534 279.0
168.086711 126.0
169.104289 469.0
171.108934 422.0
172.125341 120.0
173.134429 987.0
174.138697 47.0
175.149794 564.0
177.153339 245.0
177.163759 980.0
178.077667 302.0
179.086995 237.0
180.079452 160.0
181.09838 465.0
182.112248 110.0
183.114375 579.0
185.10951 767.0
186.141238 62.0
187.147655 585.0
189.161921 433.0
189.165951 1904.0
191.105686 268.0
192.094194 113.0
193.101591 390.0
194.100699 127.0
195.118816 477.0
196.113534 56.0
197.130011 631.0
199.147387 424.0
200.157834 28.0
201.166682 538.0
203.112387 356.0
203.182197 85.0
205.155832 78.0
207.172877 994.0
209.133183 419.0
210.14447 110.0
211.138288 608.0
212.161575 76.0
213.164423 329.0
215.161428 206.0
216.112296 23.0
217.156203 228.0
218.112901 95.0
219.125359 150.0
221.126734 141.0
221.132564 563.0
223.151809 310.0
225.142044 213.0
225.159684 342.0
227.175069 419.0
229.126755 291.0
231.13446 57.0
233.129965 91.0
233.132955 376.0
235.1566 193.0
236.161168 108.0
237.160325 242.0
239.163451 247.0
241.126316 194.0
243.139971 211.0
245.188076 125.0
247.140051 196.0
248.159049 52.0
249.163147 142.0
250.173914 61.0
251.154122 403.0
253.187327 109.0
255.175512 125.0
257.173047 115.0
260.15393 120.0
261.156648 51.0
263.183743 101.0
265.158078 186.0
265.193168 215.0
267.208663 486.0
269.194778 164.0
277.196529 682.0
279.212844 899.0
281.05083 65.0
283.209635 135.0
285.20795 238.0
287.206635 215.0
289.19897 400.0
292.181963 53.0
293.192551 25.0
295.205516 1656.0
297.223641 529.0
307.199447 209.0
307.209757 1714.0
313.208833 34.0
313.219233 839.0
315.231838 151.0
325.214904 1065.0
325.223754 1668.0
331.20992 23.0
331.22954 348.0
343.224441 613.0
343.235341 961.0
347.221471 58.0
349.235996 110.0
361.231327 91.0
361.240637 877.0
379.246274 82.0
388.292662 22.0
396.208453 387.0

