>compound 
>formula C20H26O6
>parentmass 380.2067595554001
>ionization [M + H3N + H]+
>instrumentation Unknown (LCMS)
>source file:/Users/fanzhoukong/Documents/GitHub/Libgen/data/EAD_PFP/0_unknown_/spectrum.ms
>quality UNKNOWN

>ms2peaks
115.055085 4717.0
116.057594 257.0
116.063924 381.0
117.069752 1415.0
119.08587 1685.0
121.068537 770.0
123.063224 222.0
126.04676 310.0
127.055109 821.0
128.064137 3254.0
129.069376 847.0
131.047903 191.0
131.086033 213.0
141.071999 3429.0
142.080238 768.0
143.085037 4180.0
144.075745 693.0
145.079314 2457.0
145.091114 2848.0
147.076691 1221.0
147.081451 7241.0
149.059029 428.0
149.074578 1053.0
149.094908 261.0
150.048557 684.0
151.061856 2632.0
152.064064 6823.0
153.074403 9031.0
154.083252 10273.0
155.08685 6084.0
156.096179 2295.0
157.080537 2020.0
158.076616 1723.0
159.099305 6415.0
160.089333 313.0
161.096142 3161.0
162.094861 88.0
163.064119 685.0
164.066408 315.0
165.071777 7107.0
166.078935 2515.0
167.091694 7805.0
168.091022 1015.0
169.102251 15940.0
170.07945 840.0
170.10244 396.0
170.560159 116.0
171.090238 3712.0
171.096628 8320.0
171.776437 97.0
172.089857 1402.0
173.078225 6664.0
174.071994 102.0
174.103014 55.0
175.076403 988.0
175.101033 562.0
176.062881 177.0
177.08997 1317.0
178.083409 1965.0
179.090137 8974.0
180.090486 248.0
181.076475 1012.0
181.094934 3103.0
182.075743 4264.0
183.083062 2178.0
184.08651 730.0
185.098039 4539.0
186.104318 650.0
187.114656 8002.0
188.087435 60.0
189.086973 752.0
190.075672 168.0
190.104022 101.0
191.072341 3070.0
192.060759 66.0
193.080318 141.0
195.075535 423.0
195.081005 1001.0
196.092074 666.0
197.098892 20417.0
198.095861 277.0
199.1147 6946.0
200.093198 246.0
201.079647 3279.0
201.089387 2468.0
202.065766 51.0
203.098934 195.0
203.107314 490.0
204.112343 242.0
205.083402 118.0
207.080329 1057.0
209.091186 68.0
209.098266 180.0
210.065475 153.0
210.072555 140.0
211.118863 601.0
212.089312 86.0
213.093431 957.0
214.102779 670.0
215.108778 7288.0
216.120006 99.0
217.080195 121.0
217.107625 300.0
219.107012 83.0
219.130222 99.0
223.074767 63.0
224.082535 104.0
224.355375 65.0
225.089624 2344.0
225.091104 6900.0
227.106161 424.0
228.11559 60.0
229.127268 3402.0
230.133737 44.0
231.103686 173.0
231.130486 187.0
232.108504 52.0
233.117003 138.0
239.104855 172.0
239.112415 172.0
241.087252 89.0
242.092201 133.0
242.102861 128.0
243.103789 13880.0
245.107267 137.0
245.118006 506.0
247.125134 206.0
247.134384 805.0
252.094747 77.0
256.112651 48.0
257.1201 1692.0
261.111215 1307.0
275.131155 3239.0
283.500314 23.0
295.131918 32.0
295.140308 95.0
312.064334 74.0
313.145113 52.0
327.081794 282.0
331.167578 52.0
363.179984 185.0
363.193044 97.0

