>compound 
>formula C20H24O10
>parentmass 447.12616796922
>ionization [M + Na]+
>instrumentation Unknown (LCMS)
>source file:/Users/fanzhoukong/Documents/GitHub/Libgen/data/EAD_PFP/0_unknown_/spectrum.ms
>quality UNKNOWN

>ms2peaks
115.055786 67.0
118.052963 27.0
118.066803 23.0
123.043327 20.0
126.047533 100.0
127.053672 92.0
128.046071 23.0
128.066031 102.0
129.07016 50.0
147.045498 30.0
147.967587 52.0
149.134086 20.0
150.044665 35.0
151.054323 89.0
152.063752 221.0
153.069261 113.0
154.07321 65.0
155.056079 72.0
156.078767 18.0
157.076546 38.0
158.063995 19.0
159.077994 26.0
163.007559 51.0
163.052589 54.0
163.874208 39.0
164.063638 31.0
165.071487 190.0
166.074875 64.0
167.087634 51.0
168.075513 42.0
169.061212 62.0
170.099621 24.0
172.087018 21.0
175.039845 25.0
176.054833 47.0
177.068832 11.0
178.081831 189.0
179.08592 154.0
180.082319 33.0
181.065677 74.0
182.074166 49.0
183.039055 55.0
184.035744 95.0
185.045813 1017.0
188.044199 38.0
189.062478 36.0
189.075948 22.0
190.997626 36.0
191.035536 49.0
192.041524 31.0
192.984803 87.0
193.070553 45.0
194.095522 40.0
195.088991 64.0
197.087638 108.0
198.030827 48.0
200.063885 17.0
201.051654 43.0
202.128192 39.0
203.031691 64.0
203.143371 29.0
205.158939 44.0
207.036406 84.0
207.082926 51.0
208.032745 26.0
208.096345 37.0
209.032894 33.0
210.068093 51.0
211.038962 164.0
212.00921 71.0
213.015999 68.0
214.023728 50.0
214.043818 38.0
215.082707 34.0
216.083786 36.0
218.098743 20.0
219.077822 32.0
223.070187 25.0
225.017435 609.0
225.030665 255.0
225.089435 41.0
227.026262 17.0
229.0485 91.0
235.074303 29.0
237.05203 74.0
239.054698 51.0
241.050586 57.0
243.062413 27.0
247.101878 26.0
250.979054 43.0
251.069084 21.0
252.074373 26.0
253.086351 1060.0
256.067038 144.0
257.074417 40.0
263.091929 60.0
265.021277 33.0
267.066505 65.0
268.039153 27.0
268.084043 45.0
269.045682 356.0
270.057341 33.0
271.10312 55.0
281.051198 175.0
282.060467 30.0
283.045175 55.0
283.066605 64.0
284.066264 989.0
285.077623 2418.0
285.082593 8644.0
286.092452 42.0
286.412331 95.0
286.773841 15.0
293.078863 62.0
297.077119 430.0
298.082607 63.0
303.089471 17.0
309.067304 29.0
310.082533 675.0
311.092482 732.0
313.07228 434.0
315.178317 29.0
316.168676 19.0
323.079468 28.0
324.101556 37.0
325.079305 12.0
327.090633 202.0
328.085322 29.0
333.421155 12.0
335.824202 12.0
339.077768 34.0
339.088598 90.0
341.030586 33.0
341.066746 49.0
343.008944 20.0
343.016174 45.0
353.104362 46.0
355.078629 40.0
357.089857 96.0
360.082013 182.0
365.096107 24.0
368.892583 45.0
369.110872 12.0
371.10669 73.0
375.070795 21.0
376.090294 12.0
383.117816 45.0
385.064563 12.0
387.074081 3203.0
388.07499 27.0
389.090739 76.0
399.107877 215.0
401.128134 46.0
403.100422 24.0
411.111342 22.0
415.095467 74.0
418.126714 106.0
419.132883 50.0
427.114493 12.0
429.104941 95.0
429.121151 252.0
431.097948 331.0
445.112252 175.0
445.132912 124.0
445.606331 124.0
445.658051 129.0
445.728371 46.0
446.11933 320.0
446.71128 31.0
447.133759 18143.0

