>compound 
>formula C36H56O12
>parentmass 698.41099823972
>ionization [M + H3N + H]+
>instrumentation Unknown (LCMS)
>source file:/Users/fanzhoukong/Documents/GitHub/Libgen/data/EAD_PFP/0_unknown_/spectrum.ms
>quality UNKNOWN

>ms2peaks
126.041173 13.0
126.047773 107.0
127.052823 165.0
128.062954 989.0
129.068204 460.0
130.077364 154.0
131.045614 28.0
131.088224 542.0
132.081595 50.0
133.100195 361.0
134.106825 121.0
135.078525 56.0
135.106995 94.0
137.094396 36.0
139.051256 68.0
141.072006 764.0
142.074417 363.0
143.082717 183.0
143.086227 423.0
144.086367 103.0
144.094597 59.0
145.101777 510.0
146.100618 92.0
146.112458 55.0
147.114768 116.0
161.102481 58.0
163.054281 47.0
163.083041 61.0
164.061551 75.0
165.069422 707.0
167.086812 389.0
168.082312 117.0
168.092472 105.0
169.096062 450.0
170.107753 420.0
171.116053 592.0
172.123473 91.0
173.132563 873.0
174.103253 88.0
175.147934 607.0
176.061824 44.0
177.065444 54.0
177.096724 73.0
177.154074 75.0
178.078424 298.0
179.082514 169.0
180.085475 375.0
181.101785 176.0
182.105095 160.0
183.116485 476.0
184.120026 116.0
185.132976 690.0
186.136666 167.0
187.149796 915.0
189.069757 128.0
189.142517 158.0
190.073267 53.0
190.134047 29.0
191.083497 55.0
191.120057 165.0
191.141727 186.0
192.099107 96.0
193.096987 132.0
194.102908 40.0
195.111468 70.0
195.116928 163.0
195.129238 117.0
197.130878 173.0
198.138958 110.0
199.148259 534.0
200.160099 71.0
201.163389 507.0
202.131589 31.0
203.10909 172.0
203.14259 365.0
204.09454 67.0
205.10063 71.0
205.15675 65.0
206.09653 82.0
207.03281 59.0
207.11034 103.0
207.13571 47.0
209.132691 167.0
210.139741 34.0
211.147781 131.0
213.155372 90.0
213.163962 431.0
215.109222 103.0
215.149462 87.0
215.182512 139.0
216.090232 32.0
217.160053 108.0
218.138473 96.0
219.135063 98.0
219.149553 150.0
220.138253 54.0
221.133553 99.0
221.149573 74.0
223.148424 131.0
223.157214 82.0
225.166574 128.0
227.177555 98.0
229.095175 27.0
229.161905 38.0
231.141475 56.0
232.134436 37.0
233.153466 138.0
235.136636 188.0
235.145656 142.0
236.136637 58.0
237.152337 355.0
239.147867 98.0
239.181187 140.0
240.186717 55.0
241.191298 102.0
243.162458 54.0
245.152388 153.0
246.165749 110.0
247.150419 90.0
247.167349 93.0
248.137039 42.0
249.151909 544.0
251.17855 169.0
252.18719 49.0
253.1838 77.0
253.19471 133.0
254.20114 41.0
255.179811 45.0
255.209551 48.0
257.188341 58.0
259.168501 468.0
261.162582 48.0
263.165872 60.0
264.171222 88.0
265.023723 40.0
265.186413 94.0
265.196003 156.0
267.000133 62.0
267.198653 58.0
267.206683 145.0
268.991923 28.0
269.228164 36.0
271.176594 41.0
273.182264 84.0
273.195204 76.0
275.141675 33.0
275.179065 29.0
277.192915 67.0
279.179736 66.0
281.055406 111.0
282.053146 38.0
283.205976 39.0
285.196007 34.0
287.178057 44.0
289.190268 45.0
291.206198 65.0
293.098289 103.0
293.227439 43.0
297.230089 33.0
299.20769 93.0
303.220081 104.0
304.213711 35.0
305.222621 54.0
306.231501 24.0
307.243772 88.0
309.256092 82.0
311.238672 53.0
313.180783 59.0
314.180143 35.0
315.198483 52.0
317.220944 39.0
318.186544 36.0
319.230614 40.0
319.244594 52.0
320.244834 37.0
321.185144 38.0
323.230225 76.0
325.239345 57.0
325.255245 74.0
326.263086 61.0
327.235226 27.0
329.224786 29.0
331.190027 74.0
332.192717 45.0
333.255917 47.0
335.240327 69.0
337.227048 56.0
337.254028 77.0
338.260408 268.0
339.235838 49.0
341.239779 32.0
343.253209 79.0
345.25076 48.0
347.24493 27.0
349.20828 94.0
350.201171 34.0
351.248751 40.0
353.247281 291.0
354.258821 77.0
357.242832 52.0
359.273193 40.0
363.265233 86.0
364.227424 122.0
365.252694 78.0
366.249394 25.0
370.257295 47.0
371.262675 101.0
373.283205 242.0
375.271246 64.0
375.305426 199.0
377.285526 65.0
379.274667 42.0
381.282417 58.0
382.252847 69.0
383.293558 37.0
384.268468 28.0
386.235478 41.0
387.246898 27.0
388.263499 56.0
391.290259 153.0
391.303809 891.0
392.310189 73.0
393.31788 346.0
395.29618 46.0
399.263801 40.0
400.258801 2229.0
401.280531 105.0
403.266952 56.0
405.278002 61.0
405.544262 12.0
408.302933 59.0
409.303173 675.0
410.320543 224.0
411.305373 77.0
411.323253 52.0
413.306444 31.0
415.294414 22.0
417.275165 61.0
418.284315 70.0
419.294695 776.0
421.303056 150.0
423.287976 92.0
426.308487 46.0
427.300157 67.0
427.312307 183.0
428.317307 66.0
428.329457 80.0
435.285209 31.0
435.303609 58.0
436.293419 86.0
436.309769 103.0
437.308919 3353.0
438.313309 42.0
439.290089 89.0
439.322929 110.0
439.331139 172.0
447.284381 63.0
453.294032 71.0
453.823932 72.0
454.301963 483.0
455.319393 4625.0
456.335873 133.0
457.338803 36.0
464.286765 23.0
465.300505 406.0
467.282615 44.0
471.314756 81.0
472.321226 1299.0
473.337307 4200.0
482.303098 158.0
483.310459 2918.0
500.316102 288.0
501.324552 7893.0
517.317146 38.0
517.620246 55.0
518.324716 325.0
519.342226 5086.0
536.3636 184.0
599.361783 42.0
617.354947 12.0
617.364647 60.0
627.357569 30.0
635.377111 1279.0
645.369843 54.0
663.372047 1573.0
680.38456 29.0
681.40965 50.0
697.387434 126.0
697.402934 92.0
698.407084 2227.0

