>compound 
>formula C20H22O6
>parentmass 359.14891942648
>ionization [M + H]+
>instrumentation Unknown (LCMS)
>source file:/Users/fanzhoukong/Documents/GitHub/Libgen/data/EAD_PFP/0_unknown_/spectrum.ms
>quality UNKNOWN

>ms2peaks
115.058719 66.0
119.054312 103.0
121.061514 82.0
122.036775 3511.0
123.044206 373.0
126.047328 94.0
127.056779 510.0
128.06251 1713.0
129.069971 721.0
130.042262 252.0
131.047383 1931.0
131.051883 11238.0
132.056363 481.0
133.064694 552.0
134.039435 417.0
135.043906 1777.0
136.050987 411.0
136.612587 242.0
137.066378 36912.0
138.070609 1084.0
141.062201 105.0
143.044723 140.0
144.055274 85.0
145.063505 250.0
147.045346 185.0
153.069122 124.0
157.064135 433.0
159.042027 155.0
160.051738 1361.0
161.060889 947.0
162.066999 351.0
163.08123 11019.0
164.045941 76.0
164.081071 235.0
165.057542 8220.0
167.054584 226.0
167.076114 400.0
168.063965 108.0
169.067466 141.0
171.052687 219.0
171.084717 196.0
172.056068 114.0
173.059809 746.0
174.06905 1770.0
175.077321 5597.0
176.052132 871.0
177.062232 5995.0
178.067373 1497.0
179.072734 4628.0
181.066906 230.0
182.001387 49.0
183.081408 147.0
184.051619 74.0
185.060399 297.0
187.074131 1320.0
188.077702 104.0
188.088462 173.0
189.092043 3287.0
190.064534 317.0
191.072025 2553.0
193.085456 108.0
193.105876 111.0
194.057247 85.0
195.067028 95.0
196.054739 79.0
197.06834 78.0
199.077102 608.0
200.062432 113.0
201.090503 1722.0
202.078014 1265.0
203.087495 3745.0
204.068696 83.0
204.081296 183.0
204.093886 300.0
205.090147 3752.0
206.074768 98.0
207.068789 129.0
208.079339 231.0
209.09659 60.0
211.070242 89.0
214.065275 122.0
215.069755 111.0
215.087005 204.0
216.093856 87.0
217.085747 2044.0
218.074128 111.0
219.082149 554.0
220.08669 806.0
221.094971 1346.0
222.066152 96.0
223.100912 2337.0
224.086733 165.0
227.998547 572.0
229.995368 1967.0
231.088619 5614.0
232.08894 947.0
233.094421 252.0
234.073572 268.0
235.107363 1022.0
236.105804 47.0
237.094285 115.0
238.098435 60.0
239.104706 46.0
241.070388 95.0
242.069189 85.0
243.08075 50.0
245.102542 603.0
246.098912 117.0
247.077283 438.0
248.088454 934.0
249.092405 1519.0
250.099926 143.0
251.104837 72.0
252.116418 66.0
253.084848 75.0
253.120699 366.0
258.068123 81.0
259.080994 5620.0
260.083225 610.0
261.096895 290.0
262.088756 345.0
262.103006 407.0
263.107887 8314.0
264.109928 196.0
265.091529 271.0
266.0941 162.0
267.104991 100.0
269.114852 57.0
273.095656 1158.0
274.100267 457.0
275.069388 159.0
275.088888 131.0
275.111618 114.0
276.080888 1473.0
277.089339 670.0
277.112199 559.0
279.101981 267.0
280.109402 150.0
281.116993 1886.0
283.605895 58.0
289.08618 103.0
290.091401 323.0
291.106721 12250.0
292.112122 472.0
293.084013 232.0
295.135315 2511.0
305.110544 299.0
305.120804 6651.0
307.100415 70.0
308.103776 931.0
309.119127 1106.0
310.118888 107.0
311.134109 108.0
313.138291 48.0
321.112298 251.0
323.128939 8353.0
341.133895 2828.0
341.146555 5628.0
342.057296 146.0
346.98851 49.0
359.164551 139.0
359.181241 355.0

