>compound 
>formula C62H100O32
>parentmass 1374.65359204924
>ionization [M + H3N + H]+
>instrumentation Unknown (LCMS)
>source file:/Users/fanzhoukong/Documents/GitHub/Libgen/data/EAD_PFP/0_unknown_/spectrum.ms
>quality UNKNOWN

>ms2peaks
51.022941 528.0
52.027072 52.0
53.036703 125.0
55.053094 260.0
56.053395 36.0
57.030875 23.0
57.072315 55.0
58.995397 23.0
60.983238 22.0
61.007728 7.0
63.019569 74.0
65.039561 836.0
66.046781 77.0
67.054512 547.0
68.023013 13.0
68.994383 92.0
69.066813 63.0
70.071824 23.0
73.044976 12.0
75.021517 69.0
76.026088 69.0
76.032918 70.0
77.039919 1144.0
78.040549 212.0
79.05462 513.0
80.055061 76.0
81.069741 294.0
82.071282 27.0
83.084333 105.0
84.088323 17.0
85.051354 38.0
86.012605 11.0
88.020226 7.0
89.038727 326.0
90.049147 29.0
91.055918 1008.0
92.057949 108.0
93.070179 176.0
94.06515 55.0
95.085471 178.0
96.086321 29.0
97.023892 31.0
98.014493 11.0
100.112714 40.0
101.025365 19.0
102.045055 64.0
103.052946 184.0
104.052807 45.0
105.070547 197.0
106.068018 50.0
107.079319 57.0
109.09995 32.0
110.098851 19.0
114.036363 26.0
115.051244 46.0
115.056504 515.0
116.060075 76.0
117.065895 235.0
118.063276 26.0
119.083057 55.0
120.079318 57.0
121.101278 51.0
123.09951 40.0
126.042812 12.0
126.047202 35.0
127.047832 39.0
127.054452 198.0
128.061273 537.0
129.064274 89.0
130.063374 109.0
131.069685 71.0
131.084255 59.0
132.075376 79.0
133.013716 20.0
133.096206 57.0
134.096007 36.0
135.118918 38.0
136.071418 22.0
137.130479 15.0
139.05294 75.0
140.051641 47.0
141.070212 222.0
142.072612 76.0
143.076223 93.0
144.077494 90.0
145.091684 45.0
145.103484 49.0
145.967375 21.0
146.098785 29.0
147.078476 21.0
147.964896 30.0
148.110306 28.0
150.045578 60.0
151.055238 52.0
152.059839 161.0
153.06291 59.0
154.07414 69.0
155.086271 26.0
156.082142 23.0
157.094702 79.0
158.089573 62.0
159.098724 69.0
161.089345 35.0
163.053566 31.0
164.063347 34.0
165.068708 226.0
166.070808 58.0
167.073419 112.0
167.086079 108.0
168.05364 45.0
168.07144 61.0
169.07749 64.0
170.095511 23.0
171.107612 22.0
172.109872 46.0
173.103463 23.0
173.129243 30.0
174.103794 19.0
175.056424 44.0
175.144574 21.0
176.058475 77.0
177.067276 29.0
178.077656 234.0
179.085677 83.0
180.068928 23.0
180.084708 62.0
180.990278 33.0
181.068038 27.0
181.095738 65.0
182.095069 53.0
182.187609 77.0
183.19655 22.0
184.11126 30.0
187.056542 50.0
187.151682 19.0
188.061413 39.0
188.143363 13.0
189.068964 148.0
190.077864 49.0
191.001425 122.0
191.075905 27.0
192.072486 44.0
192.092856 44.0
192.981836 94.0
193.094816 37.0
194.084347 24.0
194.977938 45.0
195.116098 30.0
196.119029 27.0
197.127299 21.0
199.03131 9.0
199.143261 22.0
201.068082 17.0
201.161162 41.0
202.075043 91.0
203.120803 72.0
203.141753 297.0
204.123094 35.0
204.144074 29.0
205.089955 30.0
206.106925 24.0
207.030556 200.0
208.028277 37.0
208.114477 26.0
209.116237 12.0
210.128928 26.0
211.148319 14.0
213.07298 40.0
215.069541 31.0
215.085371 57.0
216.092222 27.0
216.180062 18.0
217.102873 20.0
218.104303 18.0
219.118204 18.0
220.111195 24.0
221.122455 35.0
222.119966 22.0
223.146077 14.0
225.051028 24.0
225.139208 59.0
226.042619 31.0
226.076499 36.0
227.042319 8.0
228.08858 28.0
229.091281 17.0
230.099161 20.0
230.191301 16.0
231.098842 15.0
232.112603 21.0
233.106163 25.0
234.127324 32.0
235.123685 29.0
236.147725 28.0
238.157177 14.0
239.083297 10.0
239.569758 8.0
242.98585 20.0
244.112581 26.0
246.126362 14.0
248.985504 15.0
249.988175 13.0
251.155845 11.0
252.094426 14.0
253.196847 20.0
254.187647 10.0
257.185769 16.0
261.120402 14.0
263.040933 15.0
265.017925 56.0
267.007126 39.0
268.974837 10.0
270.234298 14.0
277.089133 13.0
278.164784 10.0
279.124654 8.0
281.055965 113.0
282.047146 29.0
283.033507 37.0
285.165158 8.0
287.15042 8.0
289.162541 24.0
295.104775 17.0
307.237503 18.0
309.254954 8.0
312.936967 8.0
315.306928 9.0
326.286676 18.0
363.293871 8.0
387.301517 18.0
402.021347 8.0
405.316119 26.0
417.439907 8.0
435.291999 14.0
437.30344 20.0
439.313332 18.0
443.313944 8.0
455.320052 15.0
466.30758 11.0
467.31506 33.0
481.28672 7.0
483.315471 26.0
485.316113 13.0
502.330344 14.0
609.030336 8.0
613.363038 11.0
647.375511 9.0
731.392848 8.0
777.963129 7.0
780.43237 8.0
811.437271 7.0
913.47695 10.0
923.473116 35.0
925.480618 19.0
929.517181 8.0
943.48112 11.0
1073.539797 9.0
1075.524298 18.0
1075.537118 80.0
1171.521073 9.0
1207.580907 86.0
1207.621677 37.0
1225.573959 26.0
1225.608259 12.0
1321.592094 24.0
1339.601866 67.0
1356.369457 9.0
1374.646569 177.0

