>compound 
>formula C18H20O5
>parentmass 339.12029474245
>ionization [M + Na]+
>instrumentation Unknown (LCMS)
>source file:/Users/fanzhoukong/Documents/GitHub/Libgen/data/EAD_PFP/0_unknown_/spectrum.ms
>quality UNKNOWN

>ms2peaks
51.022692 832.0
52.027522 64.0
53.038593 176.0
54.029864 24.0
55.052844 317.0
55.934385 59.0
56.055335 52.0
56.941886 64.0
57.038766 50.0
57.071316 53.0
59.048577 39.0
60.983748 58.0
62.014709 66.0
63.023199 247.0
64.02414 22.0
65.036931 699.0
66.043331 86.0
67.052642 400.0
68.050213 42.0
68.994923 210.0
69.068173 78.0
71.051615 33.0
72.079225 22.0
74.010717 52.0
75.011057 36.0
75.021237 36.0
76.029228 75.0
77.038778 1142.0
78.042869 264.0
79.05259 604.0
80.04952 118.0
81.067691 278.0
82.071892 31.0
83.050122 32.0
83.075122 57.0
85.054684 43.0
85.063714 30.0
86.013224 18.0
87.021915 25.0
88.017176 15.0
89.034736 17.0
89.036586 185.0
90.040487 42.0
91.056557 1570.0
92.056708 228.0
93.068939 171.0
94.058199 33.0
94.063899 48.0
95.06415 89.0
95.0823 76.0
97.064111 46.0
98.096642 20.0
99.042973 20.0
99.096603 14.0
100.007563 13.0
101.056574 29.0
102.047715 93.0
103.053635 189.0
104.057496 52.0
105.067226 200.0
106.064677 52.0
107.080018 82.0
108.072698 38.0
109.060749 19.0
109.083259 121.0
109.101679 128.0
110.99771 41.0
111.04519 36.0
112.999612 31.0
113.058972 13.0
115.044613 33.0
115.054073 492.0
116.055524 102.0
117.066624 241.0
118.066135 71.0
118.073585 42.0
119.076305 62.0
119.082725 101.0
120.081126 41.0
121.065377 25.0
121.104177 61.0
123.079608 107.0
123.090478 35.0
123.992029 18.0
125.057869 15.0
125.074299 43.0
126.04686 48.0
127.055211 195.0
128.063141 374.0
129.067282 179.0
130.066383 218.0
130.989723 50.0
131.071563 66.0
131.088393 52.0
132.018724 27.0
132.075034 54.0
133.083404 49.0
133.101504 35.0
135.045686 46.0
135.085536 45.0
137.094567 45.0
138.045938 12.0
139.054898 53.0
141.06983 271.0
142.06991 31.0
142.07575 59.0
143.079371 34.0
144.078292 59.0
145.072432 25.0
145.100752 42.0
146.084193 25.0
147.081643 37.0
147.099473 82.0
148.113504 24.0
149.085575 18.0
149.134595 40.0
150.043995 32.0
151.060886 129.0
152.059447 166.0
153.068587 132.0
154.072538 75.0
155.066369 37.0
155.088319 34.0
156.075629 68.0
157.05869 14.0
157.08448 77.0
157.0943 59.0
158.095341 31.0
158.113821 27.0
159.115641 72.0
161.097652 48.0
161.107592 60.0
161.132472 35.0
162.101373 16.0
163.066914 56.0
163.075674 63.0
163.136984 25.0
165.064525 172.0
166.076716 54.0
167.065406 53.0
167.073006 52.0
168.074827 64.0
168.081177 36.0
169.086008 37.0
170.079788 29.0
171.043149 28.0
171.096949 34.0
171.123869 24.0
172.0979 15.0
173.11594 43.0
173.13139 49.0
174.117581 21.0
175.035261 74.0
175.057301 20.0
175.142871 54.0
177.081193 43.0
177.111173 31.0
178.077223 103.0
179.086564 79.0
180.086905 26.0
181.076845 24.0
181.086075 60.0
183.034397 30.0
183.090077 34.0
183.107307 33.0
184.112157 40.0
185.083758 16.0
185.131748 33.0
186.127439 33.0
187.107019 55.0
187.149899 48.0
189.05371 23.0
189.07527 33.0
189.09008 42.0
191.003702 30.0
191.053802 52.0
191.175682 18.0
192.982753 61.0
193.087553 28.0
193.982924 22.0
194.087994 15.0
195.073244 25.0
195.099244 51.0
195.119764 38.0
197.100726 27.0
197.129596 29.0
199.079227 17.0
199.117917 19.0
201.053748 30.0
201.124578 42.0
201.162078 31.0
202.074569 51.0
203.093819 29.0
203.141289 68.0
204.07505 23.0
204.15622 18.0
205.076861 28.0
205.117541 26.0
206.082551 17.0
207.028662 48.0
207.030062 129.0
208.022163 13.0
208.033473 28.0
208.106943 17.0
209.018023 24.0
209.081783 30.0
209.132763 17.0
210.995564 34.0
211.112265 33.0
211.132195 18.0
211.147855 23.0
213.075356 15.0
214.160637 21.0
215.092057 37.0
215.142347 28.0
216.080208 20.0
217.157238 40.0
218.077769 24.0
219.08581 39.0
219.19601 18.0
221.120501 14.0
221.154011 22.0
223.094342 18.0
223.142642 66.0
224.141753 26.0
225.043174 44.0
225.159294 37.0
226.078934 23.0
227.040315 13.0
228.105825 13.0
229.136736 30.0
231.101297 26.0
233.113139 21.0
233.155009 40.0
235.10664 24.0
235.14871 32.0
237.119201 38.0
237.164451 24.0
239.146393 14.0
241.191324 11.0
242.986865 36.0
243.136515 19.0
243.171665 22.0
247.139668 31.0
247.167378 24.0
248.113928 14.0
251.12426 20.0
251.1615 34.0
253.062241 18.0
257.095684 18.0
257.189954 16.0
261.159437 74.0
261.184767 73.0
263.105508 17.0
264.112319 15.0
265.018969 24.0
265.114639 14.0
265.159319 26.0
266.0294 25.0
266.99693 23.0
269.099592 18.0
271.144333 17.0
271.195973 35.0
275.157916 46.0
275.203416 55.0
277.212487 35.0
279.181358 46.0
279.189538 83.0
281.050439 87.0
282.04986 28.0
283.051021 20.0
284.171201 27.0
285.038842 69.0
285.217492 23.0
289.155275 73.0
289.178585 86.0
293.079807 24.0
293.193847 40.0
295.218599 14.0
298.11908 13.0
303.202984 122.0
303.225164 49.0
307.192206 44.0
321.118395 24.0
321.148215 55.0
321.185105 75.0
321.211415 84.0
332.230132 17.0
339.127507 180.0
339.158177 464.0
339.178037 485.0
339.187037 319.0

