>compound 
>formula C9H6N2O3
>parentmass 191.04512306095
>ionization [M + H]+
>instrumentation Unknown (LCMS)
>source file:/Users/fanzhoukong/Documents/GitHub/Libgen/data/EAD_PFP/0_unknown_/spectrum.ms
>quality UNKNOWN

>ms2peaks
50.014112 679.0
51.023013 2218.0
52.019374 39.0
52.030684 29.0
53.029645 23.0
53.039635 69.0
55.015386 33.0
55.055356 28.0
56.049807 11.0
56.963668 16.0
57.068698 32.0
58.063179 15.0
59.04742 29.0
61.003991 13.0
61.009351 34.0
62.018152 146.0
63.024333 1184.0
64.031564 789.0
65.027025 109.0
65.038875 227.0
66.047675 102.0
67.044186 47.0
67.053816 32.0
68.013417 33.0
68.988788 15.0
68.999368 103.0
71.01071 19.0
71.01401 36.0
71.08916 19.0
73.009091 25.0
74.017842 336.0
75.024173 4254.0
76.025344 72.0
76.028764 107.0
76.773715 17.0
76.796035 51.0
77.046055 6027.0
78.044996 916.0
79.043416 246.0
80.458008 20.0
81.057518 25.0
81.073398 36.0
83.055 17.0
84.995481 25.0
88.022204 27.0
88.032314 31.0
89.040715 5541.0
89.752055 25.0
90.049286 5755.0
90.783306 45.0
91.043907 5900.0
91.853297 16.0
92.028007 283.0
92.038347 249.0
92.046807 126.0
93.024018 65.0
93.041978 55.0
93.049538 102.0
93.058038 102.0
94.043439 144.0
94.051989 48.0
95.05027 1304.0
96.044221 17.0
98.938163 21.0
100.017814 17.0
100.029574 34.0
100.036434 29.0
101.040295 4739.0
101.471065 16.0
102.034326 135.0
103.042167 79.0
103.707507 30.0
104.050968 9328.0
104.598288 17.0
104.726568 21.0
105.052638 2560.0
106.035899 23.0
106.037909 92.0
106.062129 24.0
106.46101 24.0
107.04198 20.0
107.05516 22.0
108.073181 49.0
109.350952 16.0
111.620384 16.0
112.994895 20.0
113.585056 19.0
114.029216 18.0
114.063736 16.0
115.044067 267.0
115.629017 20.0
115.667997 70.0
115.690117 19.0
116.054978 15214.0
116.717618 35.0
116.825588 16.0
117.058648 2980.0
117.393819 38.0
117.575389 20.0
117.698639 21.0
118.025139 37.0
118.040039 19.0
118.046419 76.0
118.36595 14.0
118.61974 24.0
118.66029 38.0
119.04369 708.0
119.47482 18.0
120.032271 28.0
120.045151 327.0
121.032482 251.0
121.050802 69.0
121.610832 11.0
122.400733 50.0
124.114764 13.0
125.914356 37.0
126.793087 28.0
127.043607 363.0
127.310957 49.0
127.609567 20.0
127.620637 26.0
127.632807 72.0
127.640557 120.0
127.653837 63.0
128.055928 17634.0
128.736368 35.0
128.875348 21.0
128.935398 43.0
129.029979 39.0
129.044439 2042.0
129.345089 21.0
129.362909 20.0
129.465429 35.0
129.511129 16.0
129.591429 29.0
130.037879 41.0
130.050169 33.0
132.046311 2759.0
133.057982 1889.0
134.040633 37.0
134.063303 39.0
135.281994 44.0
135.512264 34.0
135.819194 45.0
136.463855 166.0
137.760076 89.0
144.048311 2254.0
144.556682 73.0
144.577892 268.0
144.595562 109.0
145.057682 19646.0
146.054013 154.0
146.061123 353.0
146.409383 28.0
147.087004 37.0
149.046705 19.0
150.446847 25.0
151.758218 266.0
157.034772 31.0
158.103363 21.0
160.036965 368.0
160.525605 98.0
161.051046 5086.0
161.775416 15.0
162.055866 158.0
164.061088 15.0
175.668998 6.0
177.042769 92.0
182.075503 8.0
190.44029 26.0
191.047761 3894.0

