>compound 
>formula C17H18O8
>parentmass 373.0893885367001
>ionization [M + Na]+
>instrumentation Unknown (LCMS)
>source file:/Users/fanzhoukong/Documents/GitHub/Libgen/data/EAD_PFP/0_unknown_/spectrum.ms
>quality UNKNOWN

>ms2peaks
50.013712 164.0
51.023303 853.0
52.028154 87.0
53.037805 112.0
54.039146 64.0
55.053497 522.0
57.030559 36.0
58.06351 32.0
59.047761 41.0
60.982923 71.0
62.010024 50.0
63.021595 275.0
64.029587 46.0
65.039258 880.0
66.049659 35.0
67.0534 549.0
68.023511 22.0
68.994072 176.0
69.068952 43.0
70.069063 35.0
71.050754 50.0
73.044686 37.0
74.010687 51.0
75.026308 34.0
76.030059 128.0
77.039621 1266.0
78.042862 346.0
79.053463 587.0
80.055654 163.0
81.069455 416.0
82.066566 58.0
83.046557 71.0
83.068877 92.0
85.063729 58.0
87.043861 36.0
88.019032 27.0
89.037533 447.0
90.040514 37.0
91.053776 1330.0
92.056737 150.0
93.065188 183.0
94.059189 112.0
95.08425 149.0
97.060302 66.0
99.043994 77.0
99.997815 20.0
101.059576 97.0
103.052698 214.0
104.054559 63.0
105.068291 460.0
106.064742 69.0
107.076033 142.0
108.079904 44.0
109.076175 173.0
111.041147 45.0
111.055597 111.0
113.041359 61.0
113.048649 152.0
115.056271 595.0
116.059852 155.0
117.068843 269.0
118.071565 90.0
119.087106 108.0
120.086607 19.0
121.102138 40.0
123.07755 36.0
123.08625 76.0
125.059092 97.0
126.043693 37.0
127.050924 145.0
128.062175 460.0
129.066296 181.0
130.064297 80.0
130.073217 49.0
130.989858 33.0
131.084058 105.0
132.015509 23.0
132.05828 63.0
133.085831 49.0
133.098261 106.0
134.095812 27.0
135.077723 43.0
135.083423 42.0
136.088364 21.0
137.056885 39.0
137.092435 51.0
139.046987 57.0
139.070067 68.0
141.070009 225.0
142.07126 112.0
143.076041 109.0
144.087902 75.0
145.086784 167.0
146.089125 64.0
147.080666 46.0
147.107996 69.0
148.088667 24.0
149.095338 43.0
150.042999 27.0
151.0647 34.0
152.069341 234.0
153.072432 213.0
154.070333 59.0
155.082444 77.0
157.087146 108.0
158.094337 23.0
159.101039 53.0
161.094161 16.0
161.106591 95.0
163.063433 47.0
164.056934 23.0
165.066045 187.0
165.079875 91.0
166.071936 137.0
167.078337 90.0
167.094787 127.0
168.083968 53.0
169.086259 99.0
169.100289 42.0
170.09665 45.0
171.088261 89.0
171.099781 84.0
172.104603 20.0
173.081414 39.0
175.110726 94.0
175.135376 43.0
176.059647 76.0
177.080178 77.0
177.098428 49.0
178.068369 80.0
178.077529 83.0
179.09341 101.0
180.080631 37.0
181.082432 44.0
181.096922 84.0
182.102873 42.0
182.187483 16.0
183.097024 69.0
183.116904 72.0
185.046776 19.0
185.077426 17.0
185.104066 34.0
185.132066 30.0
186.127758 22.0
187.112709 75.0
188.05592 24.0
189.071541 82.0
190.060212 16.0
190.072372 71.0
190.993203 46.0
191.025713 77.0
191.087993 46.0
192.979015 65.0
193.087895 31.0
193.981906 20.0
195.077697 39.0
195.111907 83.0
196.106598 40.0
196.173828 22.0
197.102449 82.0
197.120339 45.0
198.12839 31.0
199.078211 38.0
199.150092 30.0
201.044384 21.0
201.115224 19.0
201.168024 24.0
202.081915 65.0
203.094206 32.0
203.138876 115.0
204.081017 31.0
204.137007 24.0
205.103908 21.0
205.137568 38.0
206.106859 32.0
207.03188 245.0
208.033861 40.0
209.113332 50.0
210.135963 44.0
211.097014 29.0
211.144004 29.0
213.104356 49.0
213.112947 62.0
214.060718 20.0
215.080989 32.0
215.103969 41.0
216.13535 32.0
217.124461 36.0
218.095582 31.0
219.096383 55.0
219.128293 35.0
220.102414 39.0
221.115115 19.0
221.160275 34.0
223.093337 37.0
223.140157 78.0
223.148947 61.0
225.109759 17.0
226.07499 31.0
227.065881 43.0
227.138202 54.0
228.090023 19.0
229.140174 23.0
231.100286 60.0
231.107726 66.0
232.140927 18.0
233.127068 35.0
235.11764 25.0
235.1597 51.0
236.138691 22.0
237.104602 18.0
238.217623 79.0
239.104484 32.0
239.146884 41.0
241.109697 32.0
241.144687 16.0
242.985829 20.0
243.129399 33.0
245.103841 47.0
245.129941 46.0
247.129403 19.0
249.110735 48.0
249.144745 43.0
250.129136 19.0
250.167876 40.0
251.104597 26.0
252.120868 14.0
254.154831 23.0
255.124042 54.0
256.226783 359.0
259.145426 41.0
259.167516 83.0
260.169897 18.0
261.137828 29.0
263.11244 30.0
263.14741 46.0
263.1649 38.0
265.021132 34.0
265.132772 19.0
266.997544 50.0
268.997336 42.0
269.145197 83.0
270.184408 51.0
270.208548 70.0
270.973989 17.0
271.119129 41.0
273.124601 64.0
273.148861 66.0
273.195821 16.0
274.190912 15.0
277.138095 49.0
277.180475 106.0
278.184416 26.0
279.172177 29.0
280.092808 27.0
281.047819 109.0
282.04886 15.0
283.162112 18.0
284.176823 21.0
285.165194 13.0
287.163766 84.0
288.168957 63.0
291.1216 31.0
291.17006 85.0
291.19346 35.0
292.168871 26.0
293.221392 17.0
295.126725 51.0
295.167105 41.0
295.195725 67.0
297.132807 25.0
297.168267 22.0
299.098229 27.0
299.167689 21.0
301.175531 83.0
301.195921 78.0
301.214621 26.0
302.201532 36.0
305.161715 106.0
305.216455 50.0
306.175626 78.0
309.13965 47.0
309.20337 42.0
311.068302 14.0
313.167614 35.0
313.200534 80.0
319.1858 84.0
319.19981 96.0
320.191211 100.0
323.171065 48.0
327.033989 22.0
327.179249 24.0
329.186421 32.0
330.097042 28.0
337.17203 75.0
337.20261 65.0
338.194521 93.0
339.052582 8.0
341.133764 24.0
343.224956 27.0
355.047349 22.0
355.158099 33.0
355.222739 97.0
357.064051 32.0
371.201206 25.0
373.210218 555.0
373.213998 2677.0

