>compound 
>formula C15H14O5
>parentmass 273.0768470823
>ionization [M - H]-
>instrumentation Unknown (LCMS)
>source file:/Users/fanzhoukong/Documents/Fiehnlab/library_generator/data/UVPD/0_unknown_/spectrum.ms
>quality UNKNOWN

>ms2peaks
55.017775 4028.0
57.032989 13226.0
62.9682 3959.0
65.038694 4827.0
69.033442 42433.0
77.038278 6245.0
80.025474 12193.0
81.033266 20433.0
83.01256 51578.0
93.033109 116591.0
95.048893 50889.0
97.028197 262900.0
98.035399 9552.0
106.041625 9351.0
107.048757 53705.0
109.028261 14885.0
112.361237 3917.0
117.033766 7569.0
119.0494 31303.0
121.028894 3986.0
123.043538 46269.0
124.01487 7026.0
125.023272 10489.0
131.048304 5471.0
132.020036 5414.0
133.027308 21075.0
134.03618 42811.0
135.043081 52317.0
137.022295 65029.0
138.030017 21553.0
139.038329 9125.0
143.048087 10492.0
145.063911 6593.0
146.036673 5467.0
147.044135 16915.0
159.043548 5429.0
161.058642 10169.0
164.010588 6861.0
166.024632 9426.0
171.043622 9814.0
185.058799 4450.0
186.068321 7926.0
187.075163 22281.0
189.054857 30763.0
199.495488 3967.0
205.085709 23098.0
213.054794 5844.0
263.118632 4342.0

