>compound 
>formula C10H10O4
>parentmass 177.054626464844
>ionization [M - H2O + H]+
>instrumentation Unknown (LCMS)
>source file:/Users/fanzhoukong/Documents/GitHub/Libgen/data/NIST_MONA/0_unknown_/spectrum.ms
>quality UNKNOWN

>ms2peaks
43.01727 2.036994
55.05376 1.153867
57.06929 3.067245
63.02272 5.582394
69.03362 1.117465
69.07015 1.45077
71.08512 1.839437
77.03831 7.123789
79.05453 1.701034
89.03854 100.0
90.04161 5.650647
91.05425 4.817573
93.07043 1.346873
94.03954 2.849971
103.0551 1.295683
105.0692 1.58159
106.0413 7.130615
107.0489 1.107985
117.0336 24.3696
118.0368 3.000887
119.0873 1.051107
121.0286 1.410955
133.0657 2.247063
134.0354 12.98754
134.0688 1.04011
135.081 3.215886
145.0287 3.011884
149.0236 1.864084
149.0604 5.411001
177.0552 1.664253

