>compound 
>formula C22H32O11
>parentmass 495.18368284663006
>ionization [M + Na]+
>instrumentation Unknown (LCMS)
>source file:/Users/fanzhoukong/Documents/GitHub/Libgen/data/EAD_PFP/0_unknown_/spectrum.ms
>quality UNKNOWN

>ms2peaks
50.013987 133.0
51.020816 255.0
52.029195 44.0
53.037444 91.0
54.030894 7.0
55.051723 160.0
55.931081 7.0
56.047632 9.0
57.031011 18.0
57.933439 11.0
59.927768 6.0
60.981947 44.0
62.013687 41.0
63.019856 137.0
64.028635 14.0
65.036735 724.0
66.042364 75.0
67.051693 180.0
68.054932 14.0
68.993181 156.0
70.063261 10.0
74.015747 14.0
75.016996 30.0
76.027535 44.0
77.037095 763.0
78.042924 83.0
79.052673 153.0
80.048742 57.0
81.069572 58.0
82.00458 7.0
82.071131 12.0
86.010697 7.0
87.020306 14.0
89.037765 157.0
90.043544 22.0
91.054973 1628.0
92.057013 87.0
93.054142 6.0
93.068322 28.0
94.038591 14.0
94.051891 16.0
95.05018 31.0
95.951038 14.0
98.015567 8.0
99.991346 6.0
102.044234 31.0
103.053134 73.0
104.048013 19.0
105.062732 26.0
105.067752 109.0
106.064211 27.0
107.04612 8.0
107.05422 32.0
109.045999 7.0
109.097159 9.0
110.998337 28.0
112.011056 8.0
112.997145 12.0
114.028344 7.0
115.052664 294.0
116.050963 29.0
117.063112 66.0
118.065811 29.0
119.05141 8.0
119.071721 8.0
119.079201 39.0
120.0819 17.0
122.033878 85.0
123.042387 507.0
125.035715 6.0
126.044435 19.0
126.903753 7.0
127.035114 13.0
127.046154 96.0
127.053884 48.0
128.061813 189.0
128.901301 6.0
129.043702 9.0
129.068192 42.0
130.063952 47.0
130.99066 25.0
131.059071 7.0
131.069151 19.0
131.079251 12.0
132.08048 9.0
133.049369 15.0
135.044407 17.0
135.076298 6.0
136.049227 8.0
139.055954 11.0
140.046563 13.0
141.055823 6.0
141.066283 101.0
141.928611 11.0
142.058182 16.0
142.067512 22.0
143.069961 19.0
144.07828 23.0
145.075969 10.0
145.965808 14.0
147.043647 18.0
147.108988 6.0
147.965736 18.0
148.082527 5.0
149.058076 131.0
150.046435 26.0
151.048894 27.0
152.059524 99.0
153.067453 52.0
154.021562 8.0
154.066562 66.0
155.060351 15.0
155.083531 13.0
156.04024 10.0
156.07819 24.0
157.047759 7.0
158.091769 17.0
159.060168 8.0
159.081178 7.0
160.072407 7.0
160.104617 9.0
161.071706 11.0
161.094076 14.0
162.051665 19.0
163.073355 121.0
164.061884 28.0
165.069753 110.0
166.074402 19.0
167.071971 32.0
168.077601 36.0
169.045489 46.0
170.060879 8.0
170.099209 7.0
171.025488 32.0
172.031357 29.0
173.040186 65.0
174.126926 6.0
174.995404 6.0
175.090015 10.0
175.147055 13.0
176.058364 18.0
177.089333 74.0
178.098483 474.0
179.081662 15.0
180.078061 23.0
180.988909 7.0
181.08777 6.0
182.077829 7.0
182.089719 9.0
182.1902 9.0
184.074007 7.0
185.041546 35.0
186.043676 6.0
187.055205 49.0
188.049324 5.0
189.067623 13.0
190.064382 8.0
191.000111 19.0
192.980539 32.0
193.994349 7.0
195.091529 8.0
196.105398 10.0
197.117767 5.0
200.067914 11.0
200.078984 41.0
201.057103 6.0
202.076563 17.0
203.053942 6.0
203.140493 14.0
204.078441 10.0
205.08871 10.0
205.154661 8.0
206.08318 7.0
206.09723 10.0
207.032128 61.0
208.029877 22.0
208.084978 6.0
209.017276 8.0
209.117847 6.0
210.989135 7.0
213.088924 7.0
214.081083 7.0
215.056862 10.0
215.082732 6.0
216.059341 10.0
217.085811 7.0
218.08866 9.0
219.101079 10.0
220.105658 9.0
223.106866 6.0
225.044004 12.0
227.052972 10.0
228.057871 8.0
228.072651 5.0
229.067921 57.0
229.082751 20.0
232.069718 7.0
233.117028 5.0
240.169502 6.0
241.093431 7.0
242.984808 20.0
243.081019 9.0
244.051848 9.0
244.053378 39.0
248.986033 8.0
249.985603 5.0
255.090189 10.0
256.098789 6.0
257.063858 26.0
258.070057 6.0
259.079806 19.0
260.083625 5.0
261.116295 6.0
262.082794 6.0
265.021781 21.0
266.01944 8.0
266.999799 11.0
267.08302 6.0
268.999607 6.0
271.077866 8.0
273.057284 59.0
275.073143 10.0
281.050188 81.0
282.047937 16.0
283.047466 9.0
287.073223 12.0
289.088442 18.0
289.105102 9.0
290.095351 4.0
299.068573 10.0
301.089682 39.0
309.094055 5.0
310.138625 21.0
315.08361 5.0
317.083049 303.0
318.090358 28.0
325.071502 5.0
327.118271 6.0
333.077125 7.0
335.089714 6.0
337.090352 7.0
339.03745 6.0
345.127076 19.0
359.150795 18.0
361.113943 6.0
361.126973 85.0
363.142191 68.0
375.142452 8.0
377.084119 6.0
379.097538 6.0
385.173764 6.0
389.11747 11.0
391.137508 343.0
403.133589 11.0
405.156127 105.0
409.103463 7.0
409.141124 8.0
414.17965 6.0
420.146135 6.0
424.095051 8.0
425.10232 8.0
426.10676 9.0
433.156654 6.0
435.157043 11.0
439.130529 159.0
440.132888 14.0
442.202857 6.0
447.171073 34.0
448.134852 6.0
449.153661 7.0
449.209722 6.0
451.126089 136.0
453.127848 6.0
459.168133 6.0
463.15254 51.0
463.1631 186.0
465.138548 32.0
465.144868 32.0
476.159859 13.0
477.180078 88.0
477.210039 5.0
479.150827 25.0
489.678903 3.0
492.159826 6.0
493.173075 326.0
493.529929 10.0
493.579969 6.0
494.176504 804.0
495.196204 5293.0

