>compound 
>formula C27H30O13
>parentmass 585.15786202131
>ionization [M + Na]+
>instrumentation Unknown (LCMS)
>source file:/Users/fanzhoukong/Documents/GitHub/Libgen/data/EAD_PFP/0_unknown_/spectrum.ms
>quality UNKNOWN

>ms2peaks
50.016505 113.0
51.024012 373.0
52.03167 107.0
53.037777 70.0
54.034064 40.0
55.055612 143.0
56.056659 37.0
57.070417 25.0
59.999909 10.0
60.987346 33.0
62.016784 36.0
63.023731 222.0
64.029368 13.0
65.037446 263.0
65.040606 806.0
66.045423 81.0
67.05635 181.0
68.049088 19.0
68.995405 208.0
71.05208 19.0
74.015372 57.0
75.02168 56.0
76.031367 67.0
77.040054 1173.0
78.041552 152.0
79.055619 449.0
80.052556 81.0
81.069854 68.0
82.064291 21.0
84.043496 10.0
85.036983 18.0
87.022268 18.0
88.027636 25.0
89.039703 337.0
90.04732 64.0
91.056878 1339.0
92.057025 181.0
93.061692 61.0
94.0661 75.0
95.068267 54.0
95.083547 23.0
96.081504 16.0
97.103002 15.0
98.014469 13.0
102.043009 35.0
102.048949 75.0
103.051886 81.0
104.055724 67.0
105.069461 51.0
106.067918 111.0
107.077186 25.0
108.082073 55.0
111.003055 48.0
113.00291 63.0
114.046667 17.0
115.055285 426.0
116.058852 61.0
117.06147 88.0
118.064147 84.0
119.063614 25.0
119.082864 20.0
120.082332 32.0
121.092439 18.0
122.098126 21.0
123.996501 21.0
126.046956 36.0
127.054193 63.0
128.063221 192.0
129.069558 104.0
130.067565 123.0
130.990893 46.0
132.01992 38.0
132.08069 24.0
133.082338 17.0
135.099242 14.0
136.11222 18.0
139.047962 37.0
140.051279 14.0
141.068677 93.0
142.073404 33.0
143.068811 52.0
144.075919 27.0
144.081809 63.0
145.971714 29.0
146.096004 25.0
147.968039 28.0
150.046333 18.0
151.054791 51.0
152.064218 108.0
153.066085 78.0
154.060293 41.0
155.06505 58.0
156.074317 18.0
156.092667 18.0
157.080685 30.0
158.098932 35.0
159.092039 26.0
159.100689 20.0
161.114934 21.0
163.046779 21.0
164.060296 32.0
165.070654 140.0
166.071511 39.0
167.065249 28.0
168.083556 32.0
169.071823 16.0
170.092371 18.0
171.081398 21.0
172.087425 17.0
172.110575 28.0
173.124763 19.0
174.10574 22.0
175.145247 22.0
176.061735 22.0
178.07831 71.0
179.043077 43.0
179.064047 29.0
180.065625 18.0
180.082715 30.0
181.091112 29.0
182.094389 18.0
183.092477 29.0
185.071501 24.0
185.126161 24.0
187.057176 20.0
189.068241 41.0
190.069018 26.0
191.003406 61.0
191.080586 33.0
192.064953 17.0
192.086683 21.0
192.983811 40.0
193.10495 24.0
194.097238 23.0
195.085225 13.0
197.0715 15.0
197.11688 18.0
198.075297 18.0
199.084405 15.0
200.119652 15.0
202.078407 25.0
203.136754 15.0
205.072279 34.0
207.031104 92.0
207.039554 52.0
208.031661 16.0
208.074051 32.0
209.064379 16.0
211.986701 17.0
216.04234 28.0
217.086068 17.0
217.103388 14.0
219.124512 18.0
221.115657 19.0
222.116085 17.0
225.044167 11.0
227.072292 14.0
231.088871 16.0
242.98475 16.0
248.990544 26.0
250.971529 26.0
253.080333 24.0
254.067771 17.0
255.088428 15.0
263.028547 15.0
265.021432 42.0
266.0319 17.0
267.005827 29.0
267.066657 17.0
268.981562 19.0
270.052669 75.0
271.058126 30.0
281.05297 119.0
282.045768 22.0
283.058465 227.0
284.066392 58.0
292.035091 198.0
293.038719 25.0
294.050776 17.0
295.061244 59.0
296.068351 15.0
297.045118 134.0
297.065388 45.0
297.083968 52.0
298.086076 15.0
299.054303 178.0
304.03338 12.0
305.040307 383.0
306.050595 105.0
307.060842 50.0
308.06413 12.0
309.075977 57.0
309.132797 18.0
311.059702 29.0
313.061896 65.0
313.072296 157.0
315.105311 19.0
316.036339 19.0
317.041986 563.0
319.026571 65.0
320.063248 24.0
321.047196 167.0
323.04777 32.0
325.072235 20.0
329.042415 14.0
330.048942 26.0
331.051679 20.0
332.023787 29.0
333.038434 113.0
334.045692 49.0
335.056279 239.0
335.068829 60.0
336.071966 18.0
337.071204 161.0
339.057888 25.0
343.057878 24.0
345.036633 49.0
347.042977 62.0
347.055757 85.0
348.074835 14.0
349.067932 19.0
358.053019 39.0
359.056526 147.0
361.034301 109.0
362.036408 20.0
363.028716 28.0
363.047386 125.0
363.067926 134.0
364.056023 29.0
365.06603 375.0
374.048767 18.0
375.063074 22.0
376.048332 16.0
377.063439 59.0
378.068496 30.0
380.080701 31.0
381.087838 71.0
381.099308 248.0
385.068238 70.0
389.067367 21.0
391.067912 20.0
393.034737 15.0
393.059977 35.0
395.057102 22.0
395.070742 49.0
399.111561 61.0
403.082471 562.0
405.081216 48.0
405.093056 41.0
407.07501 19.0
409.087585 16.0
417.107454 19.0
417.119454 624.0
419.074429 18.0
420.079776 324.0
421.096314 4178.0
423.110978 42.0
436.074814 13.0
437.083912 108.0
438.079819 70.0
438.096239 400.0
439.103556 3271.0
443.070216 17.0
445.095361 18.0
449.07854 21.0
449.09306 25.0
451.102795 13.0
463.105664 32.0
466.084996 52.0
467.094353 636.0
475.101692 18.0
479.090142 24.0
480.070549 21.0
480.102749 27.0
480.119899 30.0
481.101367 214.0
481.116417 499.0
483.101731 21.0
493.100515 27.0
495.09077 41.0
499.131439 21.0
509.103803 19.0
511.101718 39.0
511.123848 100.0
511.141578 25.0
525.144921 16.0
527.113246 14.0
537.11474 15.0
539.109975 18.0
541.127119 33.0
544.331281 17.0
549.139188 33.0
555.147043 12.0
563.178152 21.0
566.132184 17.0
567.125591 37.0
567.151221 219.0
582.161502 24.0
583.152219 100.0
584.150997 1842.0
585.138724 1938.0
585.160024 8008.0

