>compound 
>formula C11H20O4
>parentmass 217.14344012288
>ionization [M + H]+
>instrumentation Unknown (LCMS)
>source file:/Users/fanzhoukong/Documents/GitHub/Libgen/data/EAD_PFP/0_unknown_/spectrum.ms
>quality UNKNOWN

>ms2peaks
50.014786 137.0
51.023695 546.0
52.030654 75.0
53.038183 591.0
54.046733 10.0
55.048062 360.0
55.055322 897.0
55.935421 7.0
56.063711 10.0
57.03389 326.0
57.03833 506.0
57.04425 171.0
57.06941 11.0
57.935559 7.0
58.039249 17.0
59.048888 292.0
60.020157 107.0
60.984057 35.0
61.028427 11.0
62.015786 36.0
63.021955 83.0
64.016614 7.0
64.029944 12.0
65.038813 1315.0
66.044432 60.0
67.056161 1611.0
68.027901 13.0
69.07663 1674.0
70.041529 14.0
70.076789 12.0
71.051098 827.0
73.028276 70.0
73.035806 20.0
74.015236 9.0
75.023245 13.0
76.030394 44.0
76.789083 5.0
77.039953 1710.0
78.033662 5.0
78.046642 131.0
79.054651 1223.0
80.04896 34.0
80.05685 29.0
81.07154 2049.0
82.042029 14.0
82.064219 8.0
83.050438 281.0
83.060258 301.0
83.085258 29.0
84.056917 9.0
85.026996 162.0
85.064036 7.0
87.039595 14.0
87.046905 30.0
88.032204 9.0
89.039683 90.0
90.046382 14.0
91.056881 1887.0
92.05139 27.0
92.05891 55.0
93.072099 1766.0
94.066119 25.0
94.074669 13.0
95.048238 8.0
95.088358 1147.0
95.954827 9.0
96.056577 7.0
97.066366 1461.0
99.044274 278.0
101.045083 24.0
101.059853 33.0
102.046062 63.0
103.055951 118.0
104.05182 11.0
104.06182 31.0
105.070559 640.0
106.075088 16.0
107.087438 2758.0
108.081177 10.0
109.100986 2143.0
111.044484 694.0
112.002453 6.0
112.996813 22.0
115.054411 626.0
116.04847 5.0
116.06219 81.0
116.931329 7.0
117.069079 405.0
118.067538 19.0
119.086267 1886.0
120.085756 18.0
121.101286 1484.0
122.073455 15.0
123.079944 80.0
123.091904 115.0
123.100594 34.0
123.113634 104.0
125.065872 126.0
125.075732 187.0
125.095452 135.0
126.046101 19.0
126.904321 5.0
127.055551 74.0
128.06348 297.0
129.067599 141.0
130.074548 112.0
131.086507 594.0
132.020206 7.0
132.078756 14.0
133.091675 6.0
133.104115 132.0
134.080115 5.0
134.107345 6.0
135.116624 2108.0
137.098352 2463.0
139.07603 109.0
141.073699 24.0
141.087639 84.0
141.925518 9.0
142.078438 19.0
143.085577 52.0
144.081006 15.0
145.102285 477.0
145.969715 7.0
147.079624 73.0
147.964883 11.0
149.096682 11.0
149.128982 9.0
150.046761 15.0
151.05281 27.0
151.1118 13.0
152.063429 103.0
153.064099 7.0
153.127118 280.0
154.065608 22.0
154.075328 18.0
155.071627 267.0
156.069886 7.0
156.094346 54.0
157.095895 18.0
157.099575 154.0
158.096934 8.0
158.106794 17.0
159.080163 7.0
159.103633 8.0
159.115993 59.0
160.108573 8.0
161.096762 93.0
161.131582 6.0
162.126691 6.0
163.11233 829.0
164.067079 13.0
165.059868 8.0
165.069918 85.0
166.066987 17.0
166.072037 18.0
167.072117 24.0
168.070136 7.0
168.076476 16.0
169.086385 16.0
169.100385 17.0
170.069934 8.0
170.100584 7.0
170.106984 10.0
171.108873 21.0
171.117843 22.0
173.081512 106.0
173.102122 9.0
173.133071 7.0
174.031351 10.0
175.11213 24.0
176.063629 12.0
177.069838 6.0
178.077617 32.0
179.081686 13.0
180.085976 20.0
181.123375 645.0
182.088404 11.0
182.102944 7.0
183.087803 5.0
183.106363 7.0
184.087282 4.0
184.119192 16.0
185.118811 6.0
187.11814 6.0
187.14894 62.0
188.060019 5.0
189.052768 5.0
189.070268 12.0
189.165928 33.0
190.068357 6.0
191.001386 19.0
191.083986 8.0
192.981775 33.0
194.093854 6.0
195.092803 5.0
195.118803 5.0
198.10362 8.0
199.137689 117.0
199.141819 320.0
201.129138 27.0
202.077767 15.0
203.074676 7.0
204.082445 14.0
205.081484 7.0
205.158644 9.0
206.081544 8.0
207.031893 45.0
208.033872 8.0
214.070747 6.0
216.090705 6.0
217.099904 19.0
217.143224 70.0
217.159114 219.0

