>compound 
>formula C19H27BrO4
>parentmass 416.1430929484901
>ionization [M + H3N + H]+
>instrumentation Unknown (LCMS)
>source file:/Users/fanzhoukong/Documents/GitHub/Libgen/data/EAD_PFP/0_unknown_/spectrum.ms
>quality UNKNOWN

>ms2peaks
115.052147 347.0
115.056357 1331.0
117.073156 2089.0
118.079076 126.0
119.087166 976.0
120.089875 407.0
121.103255 367.0
123.101484 208.0
125.058004 75.0
126.045894 88.0
127.049823 284.0
128.062173 1414.0
129.071843 969.0
130.082122 72.0
131.088502 235.0
143.086469 125.0
145.098468 152.0
145.102008 1443.0
146.109128 138.0
147.118548 436.0
148.119517 175.0
149.091597 321.0
149.119107 250.0
151.057306 293.0
152.064326 644.0
153.075896 894.0
154.073786 261.0
155.087135 1331.0
157.104135 1654.0
158.103984 144.0
159.118114 1983.0
160.995724 146.0
161.132484 459.0
163.076933 332.0
163.081953 303.0
165.079632 992.0
166.076712 226.0
167.086942 620.0
168.096412 119.0
169.101281 685.0
170.110421 125.0
171.116161 1424.0
172.12485 118.0
173.13395 1321.0
175.07931 181.0
175.12209 447.0
176.063209 82.0
177.094179 362.0
178.079809 262.0
179.091759 474.0
181.103168 1457.0
182.105158 92.0
183.119177 1077.0
184.109437 67.0
185.106357 535.0
185.131687 627.0
187.011826 112.0
187.124366 266.0
189.089996 380.0
190.089495 202.0
191.087575 372.0
191.106525 255.0
193.099715 308.0
194.108364 76.0
195.118284 913.0
197.128133 219.0
199.123353 1685.0
200.121273 86.0
201.164762 4773.0
202.180312 169.0
203.116042 424.0
204.182691 386.0
207.107481 260.0
208.99807 268.0
209.10289 236.0
209.1383 160.0
211.016779 467.0
211.149139 337.0
213.165309 815.0
215.110588 293.0
215.149378 298.0
217.126768 1259.0
219.114647 193.0
219.137857 209.0
221.133447 214.0
222.193766 171.0
223.007866 124.0
223.146856 468.0
225.031245 1543.0
227.112475 791.0
227.150875 1069.0
228.163335 60.0
229.127664 163.0
229.198844 154.0
231.102594 556.0
233.121903 277.0
235.154503 82.0
237.168762 2428.0
239.044681 289.0
239.181021 144.0
241.125701 405.0
243.13326 244.0
245.11844 2695.0
247.011609 156.0
247.147129 219.0
251.043288 695.0
253.058888 398.0
255.176437 3988.0
257.194406 177.0
259.133556 123.0
259.150896 311.0
261.027785 393.0
263.049635 119.0
263.129075 153.0
265.162214 655.0
267.044694 151.0
269.010933 199.0
271.005352 218.0
273.185192 3493.0
275.045511 384.0
277.060491 599.0
279.0583 2655.0
281.0879 3192.0
283.171029 3981.0
285.015358 213.0
287.026648 73.0
289.063327 254.0
291.077127 277.0
293.089516 995.0
295.036506 155.0
297.049015 2404.0
299.037874 63.0
301.169344 350.0
301.184634 6171.0
302.185124 89.0
303.076413 699.0
305.054503 94.0
307.087092 2727.0
309.123012 157.0
311.042971 411.0
313.04687 380.0
317.093139 3182.0
319.195129 793.0
321.060058 714.0
323.058928 207.0
325.046347 2596.0
327.077046 133.0
331.212705 68.0
335.101734 3157.0
337.120384 98.0
339.069353 242.0
343.056692 267.0
345.086411 936.0
349.23519 141.0
353.104939 1960.0
363.098466 4423.0
381.105811 5582.0
398.085576 65.0
399.116276 2317.0
416.332401 125.0

