>compound 
>formula C20H26O6
>parentmass 385.1621595554001
>ionization [M + Na]+
>instrumentation Unknown (LCMS)
>source file:/Users/fanzhoukong/Documents/GitHub/Libgen/data/EAD_PFP/0_unknown_/spectrum.ms
>quality UNKNOWN

>ms2peaks
50.016279 221.0
51.023789 387.0
52.030748 123.0
53.039687 102.0
55.054666 133.0
57.070935 834.0
60.053593 21.0
60.985612 53.0
61.010862 26.0
63.022741 176.0
64.03152 32.0
65.039609 1206.0
66.042039 56.0
67.055348 227.0
68.994397 143.0
72.937004 59.0
74.014343 49.0
75.019793 37.0
76.031182 50.0
77.039881 1066.0
78.043971 205.0
79.05283 59.0
79.05631 351.0
80.051509 71.0
81.054689 47.0
81.071449 80.0
82.041048 15.0
84.044227 14.0
85.064826 96.0
86.016145 20.0
87.022105 29.0
89.036773 111.0
90.047173 27.0
91.057662 2121.0
92.059691 159.0
93.053031 98.0
94.03936 156.0
95.051889 171.0
95.086269 41.0
97.063288 83.0
99.047007 61.0
101.039955 15.0
102.044865 86.0
103.054744 307.0
104.058603 60.0
105.071343 191.0
107.053761 68.0
107.081131 28.0
109.02913 36.0
109.10074 43.0
110.097579 12.0
111.041139 988.0
113.011137 42.0
115.055186 560.0
116.057695 65.0
117.053955 18.0
117.068795 169.0
118.070444 51.0
119.058183 26.0
119.068873 34.0
119.084903 45.0
120.084383 20.0
121.033072 24.0
121.104212 22.0
122.037431 175.0
123.047031 83.0
123.115501 15.0
125.003119 17.0
125.061169 26.0
126.042479 31.0
127.036448 26.0
127.055218 148.0
128.062037 464.0
129.071717 299.0
130.071946 55.0
130.989715 14.0
131.053625 125.0
131.072695 59.0
132.018725 22.0
132.971564 39.0
133.066454 35.0
135.045653 33.0
137.061281 283.0
138.071231 120.0
139.05948 56.0
140.055879 19.0
141.068629 87.0
142.073358 30.0
143.082837 35.0
144.065307 38.0
144.082947 33.0
145.068846 38.0
145.100706 46.0
145.972845 32.0
146.037955 16.0
147.072095 28.0
147.093465 17.0
147.965634 20.0
149.096263 33.0
150.070323 29.0
151.041522 53.0
151.074042 26.0
151.090902 29.0
152.060571 99.0
152.076281 57.0
153.070931 90.0
154.07245 41.0
154.08461 34.0
155.030899 18.0
155.079699 67.0
155.105299 28.0
156.066959 31.0
156.088989 27.0
156.971438 24.0
157.069638 108.0
158.065677 37.0
158.077987 47.0
158.094007 31.0
158.508137 25.0
159.048797 3009.0
160.052326 230.0
161.060245 99.0
162.018955 16.0
163.066804 29.0
164.060313 23.0
165.075713 83.0
165.103403 33.0
166.051322 19.0
166.075332 28.0
167.047561 20.0
167.086801 34.0
168.009931 16.0
168.070891 32.0
169.06165 46.0
170.086019 29.0
170.110279 16.0
171.017369 25.0
171.048119 31.0
171.089119 32.0
172.048908 16.0
172.084888 31.0
173.070667 83.0
173.092577 69.0
174.072177 51.0
175.076586 247.0
176.073475 41.0
176.086475 53.0
176.965035 28.0
177.058875 37.0
177.094055 22.0
178.074454 52.0
180.074893 27.0
180.989672 19.0
181.054262 36.0
181.068762 26.0
182.077251 21.0
182.192281 22.0
183.022281 28.0
183.062061 18.0
183.089871 38.0
183.99634 23.0
184.05746 51.0
184.97697 17.0
185.006289 93.0
186.031019 24.0
187.062608 39.0
187.075998 82.0
188.083597 35.0
189.092557 248.0
190.069106 30.0
191.011606 46.0
191.086065 48.0
192.103055 28.0
192.989324 46.0
193.051954 19.0
193.085964 25.0
194.094593 96.0
195.023753 57.0
195.996272 20.0
197.009712 28.0
197.083971 43.0
198.086431 20.0
199.06655 47.0
199.07207 52.0
201.078499 55.0
201.090989 99.0
202.085468 60.0
203.068437 30.0
204.071997 19.0
205.093426 51.0
206.089305 76.0
207.035445 83.0
207.094645 19.0
208.021894 21.0
208.072754 17.0
209.016344 41.0
209.034754 64.0
209.072993 20.0
210.014603 27.0
211.009522 74.0
211.991112 25.0
213.002151 382.0
215.0343 22.0
216.085669 18.0
217.084768 102.0
218.087607 27.0
219.056507 22.0
219.097117 41.0
221.037156 25.0
221.112905 29.0
223.051604 113.0
225.025223 60.0
226.052112 24.0
227.047382 35.0
228.078861 16.0
228.9926 37.0
229.05485 79.0
229.09045 54.0
231.004179 61.0
231.010129 540.0
232.122208 14.0
233.090348 34.0
234.088997 16.0
235.049216 87.0
237.046445 46.0
237.070585 155.0
239.093014 23.0
241.122502 28.0
242.981891 28.0
243.097971 27.0
245.07842 25.0
246.048599 20.0
247.093078 286.0
248.099638 25.0
249.078887 30.0
249.119077 35.0
253.055614 34.0
253.066524 145.0
253.088344 75.0
254.000864 76.0
254.039904 34.0
255.090243 18.0
256.988472 87.0
257.117262 19.0
259.00254 78.0
260.10414 26.0
261.984448 18.0
263.047888 21.0
265.064766 379.0
267.023715 40.0
267.111765 24.0
268.994694 23.0
271.097112 29.0
273.023161 16.0
273.070101 20.0
274.99826 67.0
275.206209 23.0
279.076137 18.0
279.112147 21.0
281.054896 78.0
281.094326 38.0
283.065394 20.0
283.078574 173.0
284.985433 36.0
285.150843 16.0
287.023182 34.0
291.098709 24.0
293.091048 19.0
295.115436 41.0
297.134965 24.0
297.993394 13.0
299.071574 20.0
300.075363 20.0
301.039992 24.0
301.073992 27.0
302.992691 80.0
303.008041 115.0
307.110998 39.0
309.090127 17.0
310.120916 15.0
311.141306 56.0
313.135104 21.0
316.010622 37.0
320.11975 14.0
321.010739 34.0
321.130099 45.0
323.122158 69.0
323.199648 56.0
325.152156 35.0
325.164516 30.0
325.191006 27.0
326.154506 38.0
327.117645 305.0
327.137115 869.0
331.116292 46.0
337.105828 36.0
337.122028 45.0
339.116077 30.0
339.135917 71.0
341.094316 18.0
344.002484 43.0
344.022474 43.0
349.12153 99.0
351.117659 127.0
352.124308 15.0
353.139748 85.0
355.112246 25.0
355.119636 35.0
357.140265 15.0
357.171725 15.0
366.141719 17.0
367.120878 169.0
367.130248 159.0
369.131987 1037.0
370.143396 349.0
382.142868 13.0
383.152728 481.0
383.858687 25.0
384.152427 2425.0
385.166856 8375.0

