>compound 
>formula C14H25N3O9
>parentmass 380.1663603951701
>ionization [M + H]+
>instrumentation Unknown (LCMS)
>source file:/Users/fanzhoukong/Documents/GitHub/Libgen/data/EAD_PFP/0_unknown_/spectrum.ms
>quality UNKNOWN

>ms2peaks
50.014807 106.0
51.021629 233.0
52.0314 62.0
53.039662 148.0
54.035274 55.0
55.053225 218.0
56.049127 131.0
59.056531 61.0
59.061051 97.0
60.983434 28.0
62.012856 39.0
63.022117 161.0
65.034261 70.0
65.037421 479.0
66.043032 61.0
67.048344 198.0
68.994647 182.0
70.065548 1299.0
71.01089 18.0
72.935643 25.0
74.014675 42.0
75.010816 60.0
77.037679 914.0
78.040911 89.0
79.053242 231.0
80.049304 172.0
81.061305 63.0
82.065467 244.0
83.070449 93.0
84.05191 18.0
85.023772 31.0
87.021725 27.0
89.037338 205.0
90.045889 22.0
91.055461 874.0
92.053732 78.0
93.054604 51.0
94.060896 93.0
95.021987 59.0
95.044907 112.0
96.044589 42.0
97.07363 13.0
98.070322 19.0
99.056493 21.0
102.047598 40.0
103.05353 67.0
104.062391 25.0
105.070143 83.0
106.072654 101.0
107.083986 15.0
109.055559 50.0
110.07276 35.0
110.999702 37.0
112.082943 1567.0
112.999555 37.0
113.036005 18.0
114.064227 16.0
115.045618 24.0
115.052978 231.0
116.0481 23.0
116.05549 72.0
117.058111 73.0
117.067651 52.0
118.058653 53.0
119.047424 45.0
119.066664 55.0
120.077886 29.0
121.062127 26.0
123.04483 68.0
124.072772 14.0
126.046875 21.0
126.903996 16.0
127.048607 76.0
127.057437 73.0
128.063168 300.0
129.06396 68.0
129.07397 87.0
130.064181 63.0
130.993113 31.0
131.071613 72.0
132.018784 39.0
132.937736 21.0
134.096848 14.0
137.057932 71.0
138.100104 16.0
139.081535 60.0
141.068768 35.0
142.04782 38.0
143.080642 16.0
144.074883 35.0
145.969486 24.0
147.043768 37.0
148.973281 12.0
150.045332 20.0
150.950274 113.0
152.059605 156.0
153.061467 59.0
153.071167 88.0
154.072709 62.0
155.05556 22.0
155.0763 106.0
156.111292 1744.0
157.073603 22.0
157.092023 43.0
158.094295 24.0
159.089876 17.0
160.107158 14.0
163.000842 36.0
165.057186 150.0
165.063486 164.0
166.065577 49.0
167.078299 49.0
168.05346 23.0
168.08013 65.0
169.077332 44.0
170.083843 36.0
171.090805 49.0
173.105888 19.0
174.956491 17.0
175.131481 22.0
176.055723 30.0
176.982414 18.0
178.073606 105.0
179.084237 64.0
180.079319 35.0
181.07188 23.0
181.1022 28.0
182.085692 30.0
183.065203 114.0
184.112475 24.0
188.076091 26.0
189.068873 30.0
190.065624 23.0
191.000006 58.0
191.085316 22.0
192.081907 20.0
192.979039 88.0
193.97921 25.0
194.093831 44.0
195.090052 21.0
195.114672 31.0
196.099774 27.0
199.065808 13.0
200.10377 1728.0
201.074981 46.0
202.072203 28.0
202.080573 26.0
203.076104 18.0
204.078286 20.0
204.090876 18.0
205.081508 32.0
205.160068 24.0
207.033341 163.0
208.033912 30.0
209.008574 20.0
209.029834 21.0
210.953337 13.0
210.990347 8.0
215.083933 31.0
216.079265 14.0
217.075466 23.0
218.099988 23.0
219.089229 31.0
220.109761 12.0
221.088972 15.0
222.929565 14.0
226.07214 18.0
227.182612 39.0
228.962375 39.0
229.932826 41.0
232.102219 20.0
236.075576 15.0
239.08794 20.0
239.965772 9.0
242.085845 13.0
242.985986 31.0
245.12393 8.0
248.083734 23.0
248.987196 22.0
249.989867 17.0
251.072159 28.0
257.102688 15.0
260.078433 8.0
265.02131 84.0
266.996103 49.0
269.003957 8.0
274.126214 86.0
275.108366 21.0
281.052955 145.0
282.004647 16.0
282.054017 43.0
291.088401 10.0
292.138962 71.0
301.999178 23.0
319.142334 12.0
336.178341 105.0
340.031287 7.0
380.146399 42.0
380.169319 40.0

