>compound 
>formula C15H20O8
>parentmass 351.10503860116006
>ionization [M + Na]+
>instrumentation Unknown (LCMS)
>source file:/Users/fanzhoukong/Documents/GitHub/Libgen/data/EAD_PFP/0_unknown_/spectrum.ms
>quality UNKNOWN

>ms2peaks
51.023398 373.0
52.031067 90.0
53.040016 72.0
55.055004 145.0
56.053843 23.0
57.069802 56.0
60.985207 39.0
62.015406 45.0
63.023895 71.0
64.028764 7.0
65.039993 626.0
66.040042 76.0
67.051731 120.0
68.993989 284.0
71.049826 14.0
74.013923 44.0
75.022772 37.0
76.029911 73.0
77.03946 602.0
78.040959 121.0
79.055018 209.0
80.050206 101.0
82.040624 57.0
83.010633 36.0
84.016862 272.0
85.052651 18.0
87.905768 32.0
89.038187 139.0
90.043015 52.0
91.055364 967.0
92.057383 138.0
92.994962 27.0
93.066772 85.0
94.064571 39.0
95.00943 131.0
96.020439 67.0
97.025218 122.0
98.031347 38.0
98.096347 13.0
102.044422 32.0
103.054301 63.0
105.068889 116.0
107.073587 13.0
107.083727 33.0
110.011833 38.0
111.040692 40.0
112.016261 68.0
113.0211 195.0
115.055778 425.0
116.057247 97.0
117.061986 58.0
119.080173 21.0
120.079632 21.0
121.028311 97.0
123.003109 68.0
125.037707 20.0
126.032116 76.0
127.041515 68.0
128.047164 163.0
128.058264 220.0
129.055682 41.0
129.071262 55.0
130.062561 110.0
130.079311 43.0
130.98926 48.0
131.08008 62.0
132.063289 27.0
133.081818 45.0
134.086097 12.0
135.089606 29.0
138.032783 730.0
139.039361 374.0
140.04845 14.0
141.068159 91.0
142.069398 41.0
142.075238 34.0
143.009717 68.0
144.068376 21.0
144.080126 61.0
145.080165 66.0
146.075374 23.0
147.091803 26.0
149.05869 19.0
150.047039 13.0
151.055498 17.0
152.062517 103.0
153.068026 77.0
154.067115 27.0
155.058484 41.0
156.042013 65.0
157.049512 37.0
158.09845 18.0
161.120677 8.0
163.020025 29.0
164.063594 26.0
165.067683 85.0
166.068522 73.0
167.033151 41.0
167.063531 62.0
167.08126 70.0
168.080549 56.0
169.076468 36.0
169.084108 48.0
170.058697 27.0
170.099597 21.0
171.039946 263.0
172.049715 25.0
173.110134 27.0
175.054062 12.0
175.144802 22.0
176.061291 38.0
177.074009 23.0
178.077868 107.0
179.079337 19.0
179.084587 31.0
180.079666 62.0
181.088045 45.0
182.054294 47.0
182.093954 31.0
183.025773 39.0
183.074813 37.0
184.031742 122.0
185.043101 1103.0
186.05057 35.0
186.134759 30.0
187.023249 61.0
187.040658 82.0
188.072367 37.0
189.054366 1127.0
190.072675 32.0
191.000284 56.0
191.076114 39.0
192.069973 24.0
192.961612 63.0
194.096841 39.0
197.050477 13.0
198.114886 21.0
199.056385 28.0
201.033533 356.0
201.039103 1862.0
202.062692 26.0
202.073832 49.0
203.059561 36.0
204.0827 20.0
205.076099 26.0
205.156079 38.0
206.098667 50.0
207.033546 71.0
208.035525 51.0
209.028594 39.0
209.105094 12.0
211.124302 31.0
213.06741 126.0
213.07457 1023.0
214.983528 77.0
215.084088 24.0
217.046745 537.0
218.097234 24.0
220.115712 21.0
221.108041 20.0
222.1099 9.0
226.041285 13.0
226.078105 23.0
227.070494 8.0
229.060302 49.0
229.097362 19.0
230.100791 23.0
231.06027 102.0
231.09004 8.0
232.115729 8.0
239.121291 11.0
243.060817 19.0
243.079147 39.0
244.114236 19.0
246.132623 18.0
247.055622 18.0
247.063312 8.0
248.99489 57.0
249.00881 9.0
250.966588 18.0
251.017798 8.0
254.964564 29.0
256.098322 31.0
257.086911 32.0
258.04595 17.0
259.057219 50.0
261.074607 21.0
262.988605 8.0
265.019613 34.0
266.025251 16.0
267.0024 34.0
268.127299 13.0
273.077674 70.0
273.100354 44.0
275.090341 18.0
277.030489 8.0
281.037965 29.0
281.051115 50.0
283.050043 20.0
289.072656 16.0
299.059215 9.0
301.068373 18.0
303.084261 107.0
315.068687 17.0
315.141717 8.0
317.101185 14.0
319.078973 61.0
321.092731 18.0
322.1064 13.0
333.097387 140.0
334.108306 25.0
341.034119 16.0
348.091261 22.0
349.09355 221.0
350.102799 3002.0
351.109818 15816.0

