>compound 
>formula C11H14O3
>parentmass 195.10157530993
>ionization [M + H]+
>instrumentation Unknown (LCMS)
>source file:/Users/fanzhoukong/Documents/GitHub/Libgen/data/EAD_PFP/0_unknown_/spectrum.ms
>quality UNKNOWN

>ms2peaks
50.013348 113.0
51.021551 405.0
52.022145 24.0
53.034598 112.0
54.035931 19.0
55.053165 468.0
55.933988 28.0
56.048338 35.0
56.962931 25.0
57.033932 38.0
58.063195 13.0
59.048198 38.0
60.984915 42.0
61.007865 25.0
62.015128 23.0
63.020522 97.0
64.020675 15.0
65.039759 912.0
66.040622 71.0
67.053125 232.0
68.053949 26.0
68.993812 140.0
70.067986 22.0
71.048029 12.0
72.936475 18.0
73.044436 22.0
74.008769 27.0
75.020992 41.0
76.026416 87.0
77.037679 966.0
78.041773 134.0
79.052376 266.0
80.04931 87.0
81.066613 96.0
82.053946 59.0
83.00976 85.0
83.05707 62.0
84.960576 172.0
87.021753 18.0
88.027137 31.0
89.03737 200.0
89.04384 194.0
91.050827 64.0
91.054567 1354.0
92.05753 147.0
92.993243 27.0
93.065994 143.0
94.059047 47.0
94.067597 38.0
95.04782 262.0
95.05642 88.0
95.949623 13.0
96.061924 21.0
97.065007 24.0
97.94721 18.0
98.094631 15.0
98.974674 35.0
100.93445 23.0
102.045694 80.0
103.040677 56.0
104.047481 29.0
105.072224 171.0
106.063658 42.0
107.050621 41.0
107.083061 53.0
108.058454 21.0
108.070675 29.0
109.062818 66.0
110.070801 58.0
111.025605 19.0
111.043155 50.0
112.008388 23.0
112.999661 73.0
115.054138 403.0
116.055602 72.0
117.064585 117.0
118.055578 17.0
118.066228 88.0
118.922521 56.0
119.081752 39.0
120.074795 29.0
120.085525 27.0
121.065489 66.0
121.074109 64.0
121.097829 64.0
123.043875 305.0
124.049989 105.0
125.062392 73.0
126.047015 42.0
127.053169 85.0
128.056662 83.0
128.062202 228.0
129.069666 78.0
130.066559 83.0
130.988792 17.0
131.062812 37.0
131.082993 64.0
132.018946 19.0
132.961609 54.0
133.056509 29.0
135.056156 54.0
135.089176 21.0
136.048439 82.0
136.920522 20.0
137.055813 29.0
138.063456 611.0
139.04013 78.0
140.050393 39.0
141.060816 64.0
142.06436 18.0
143.070293 17.0
144.078597 58.0
145.07509 34.0
145.967323 37.0
146.083333 20.0
147.086747 13.0
147.98154 20.0
149.096664 184.0
150.008357 13.0
150.99864 35.0
151.02632 37.0
151.0492 39.0
152.059824 231.0
153.056837 85.0
153.070177 76.0
153.97809 18.0
154.06441 43.0
154.081441 24.0
155.069204 24.0
155.083844 25.0
156.057657 22.0
157.084881 12.0
158.094514 37.0
159.078987 38.0
160.114831 28.0
161.045864 33.0
161.067014 22.0
162.066898 44.0
163.048621 49.0
164.063404 33.0
165.068768 153.0
166.060791 22.0
166.069631 49.0
166.084781 51.0
167.077305 44.0
167.091235 46.0
168.072788 23.0
169.073771 50.0
170.075175 23.0
171.074418 17.0
171.098768 14.0
173.091985 34.0
176.062515 23.0
177.090889 169.0
177.118259 52.0
178.079132 57.0
179.081905 33.0
180.065159 30.0
180.075669 54.0
181.073512 36.0
182.096566 30.0
183.096009 16.0
183.192779 14.0
184.092852 32.0
186.101359 27.0
189.069199 40.0
190.075403 14.0
190.994916 43.0
192.087669 27.0
192.980732 58.0
193.071913 14.0
193.982276 37.0
194.091446 38.0
195.09039 801.0

