>compound 
>formula C15H22O3
>parentmass 268.19071556777004
>ionization [M + H3N + H]+
>instrumentation Unknown (LCMS)
>source file:/Users/fanzhoukong/Documents/GitHub/Libgen/data/EAD_PFP/0_unknown_/spectrum.ms
>quality UNKNOWN

>ms2peaks
50.015875 384.0
51.024082 1832.0
52.02892 125.0
53.039277 399.0
54.036305 17.0
54.046385 53.0
55.055693 1338.0
55.93505 20.0
56.0472 28.0
57.034248 83.0
57.049038 92.0
57.069758 46.0
59.049983 209.0
60.990508 32.0
62.015346 25.0
63.024613 304.0
64.018501 20.0
64.028691 31.0
65.041509 1657.0
66.037576 32.0
66.043946 100.0
67.052454 264.0
67.055664 851.0
68.049211 21.0
69.034599 139.0
69.054129 247.0
69.068789 146.0
70.067237 20.0
71.049734 120.0
72.93901 14.0
74.017197 76.0
75.016735 28.0
75.024375 48.0
76.029802 60.0
76.78849 20.0
77.04107 2934.0
78.048637 420.0
79.056645 1616.0
80.050963 47.0
80.058853 138.0
81.07178 2920.0
82.069778 35.0
83.087275 122.0
85.032641 32.0
85.065171 20.0
87.044386 83.0
89.039891 370.0
90.044739 38.0
90.761927 42.0
91.060826 2455.0
92.058174 174.0
92.769172 41.0
93.072291 2671.0
94.044469 40.0
94.062519 22.0
95.088546 2033.0
97.065582 182.0
99.044447 207.0
101.038352 21.0
102.0482 171.0
103.055117 923.0
104.063975 181.0
105.072722 2556.0
106.0712 115.0
107.086578 1994.0
108.059935 33.0
109.072473 94.0
109.082703 173.0
111.070428 57.0
111.081788 234.0
113.054223 62.0
113.058383 118.0
115.056629 2698.0
116.063366 620.0
117.071304 1743.0
118.068701 35.0
118.074031 100.0
119.086369 2928.0
120.092296 263.0
121.103534 2693.0
122.071382 36.0
123.080029 78.0
123.087639 54.0
124.074287 26.0
125.062674 83.0
125.096634 40.0
126.050582 107.0
127.05784 723.0
127.643748 22.0
128.064667 3216.0
129.071015 2217.0
130.076842 805.0
131.08769 1922.0
132.069798 58.0
133.104165 1758.0
134.108533 378.0
135.09505 328.0
135.11781 35.0
137.066276 22.0
138.126913 19.0
139.076071 330.0
140.048189 24.0
141.071386 827.0
142.078464 351.0
143.085611 801.0
144.095129 381.0
145.102296 2163.0
146.084564 39.0
146.090484 42.0
146.109444 55.0
147.117682 3456.0
148.122219 34.0
149.099087 352.0
150.046745 21.0
151.075692 420.0
152.06344 353.0
153.075017 392.0
153.088337 82.0
153.096817 91.0
154.076555 151.0
155.070382 121.0
155.088682 413.0
156.09434 458.0
157.100788 1685.0
158.074745 206.0
158.099385 130.0
158.596164 35.0
159.114733 4754.0
160.09491 89.0
160.10732 109.0
160.11845 74.0
161.109178 54.0
161.114168 278.0
161.124118 319.0
161.131578 541.0
163.078513 190.0
163.101033 151.0
163.113553 133.0
163.151083 36.0
164.049471 32.0
165.077438 321.0
165.088768 857.0
166.074526 198.0
167.077134 88.0
167.083484 499.0
168.076431 31.0
168.092941 57.0
169.085059 66.0
169.101619 378.0
169.109259 128.0
170.072436 29.0
170.104376 32.0
171.108814 118.0
171.117784 657.0
172.089222 244.0
172.104652 166.0
173.099499 1752.0
174.103677 71.0
175.108184 59.0
175.130194 96.0
176.066152 17.0
177.09585 2169.0
178.078847 109.0
178.091917 34.0
179.105215 179.0
180.088532 28.0
181.10089 142.0
182.110788 797.0
183.086405 45.0
184.083213 42.0
184.088523 164.0
185.09338 102.0
186.103668 52.0
186.118358 26.0
186.151778 32.0
187.152875 4848.0
188.110953 23.0
188.131133 28.0
188.148603 22.0
188.695882 21.0
189.132131 132.0
189.145611 230.0
189.167171 125.0
190.097968 34.0
191.104186 407.0
192.072324 25.0
192.988481 36.0
194.092369 25.0
195.091306 18.0
195.113196 28.0
196.080454 42.0
197.135361 1529.0
199.114057 394.0
200.071754 20.0
200.111954 45.0
201.129002 51.0
203.141557 99.0
205.131832 148.0
205.138852 255.0
206.09546 19.0
207.034558 39.0
213.124213 37.0
214.136511 50.0
215.146898 2368.0
217.119953 81.0
221.117824 18.0
222.186881 62.0
225.041924 49.0
227.04203 50.0
232.137687 18.0
232.146647 40.0
232.167537 58.0
233.158225 4539.0
250.181474 95.0
251.046822 16.0
265.020718 27.0
268.102741 18.0
268.146041 18.0
268.186171 31.0

