>compound 
>formula C14H20O6
>parentmass 307.11520936202004
>ionization [M + Na]+
>instrumentation Unknown (LCMS)
>source file:/Users/fanzhoukong/Documents/GitHub/Libgen/data/EAD_PFP/0_unknown_/spectrum.ms
>quality UNKNOWN

>ms2peaks
50.013266 220.0
51.020757 519.0
52.030528 172.0
53.037358 180.0
54.035099 22.0
55.05377 313.0
55.932401 14.0
56.053351 29.0
57.051562 31.0
60.042874 19.0
60.984005 67.0
61.005425 51.0
62.014975 62.0
63.020356 261.0
64.025207 34.0
65.037218 1211.0
66.042038 80.0
67.052949 343.0
68.02306 32.0
68.994431 156.0
71.048652 17.0
73.006554 23.0
74.013604 36.0
75.023305 83.0
76.029606 111.0
77.038307 911.0
78.042397 301.0
79.055608 559.0
80.049059 157.0
81.06899 149.0
82.06521 19.0
82.06699 60.0
83.007701 33.0
83.082691 20.0
84.018422 15.0
86.010953 36.0
87.015974 15.0
88.032355 26.0
89.037066 218.0
90.042826 82.0
91.053307 1138.0
92.052508 137.0
92.992909 25.0
93.067559 106.0
94.036859 33.0
94.06156 52.0
95.06467 71.0
95.08282 49.0
95.951191 18.0
97.027982 48.0
97.951702 20.0
100.990175 16.0
101.037435 17.0
102.043336 107.0
103.052216 125.0
103.056196 172.0
104.049087 68.0
105.063798 176.0
105.068818 177.0
106.064269 53.0
107.075559 54.0
107.085689 29.0
108.06415 20.0
108.07739 41.0
109.080811 33.0
109.101281 15.0
110.025162 15.0
111.002472 51.0
112.999214 36.0
114.039825 31.0
115.052635 399.0
116.054086 71.0
117.064117 184.0
117.071537 65.0
118.062558 20.0
119.058828 26.0
119.078068 73.0
119.086618 35.0
120.081819 44.0
121.06715 56.0
121.10165 33.0
123.120541 15.0
125.000543 24.0
125.022443 20.0
126.045404 41.0
126.902514 11.0
127.051534 62.0
128.061685 312.0
129.068026 124.0
130.064897 90.0
130.990487 49.0
131.070107 79.0
132.076908 29.0
133.085339 33.0
134.09644 23.0
135.101131 23.0
137.011652 22.0
139.041834 113.0
139.052244 58.0
140.054424 28.0
141.062525 124.0
142.060246 21.0
142.069576 40.0
142.991177 17.0
143.074377 18.0
144.076797 30.0
145.079198 58.0
145.971419 27.0
147.0671 26.0
148.959671 30.0
150.044902 25.0
151.052143 45.0
152.062763 160.0
153.065864 181.0
154.067395 65.0
155.067306 50.0
155.083156 36.0
156.081466 59.0
157.075607 27.0
158.093828 65.0
159.094339 39.0
160.111649 27.0
161.05633 27.0
161.06753 28.0
161.10857 35.0
162.997852 22.0
164.062672 31.0
165.071813 152.0
166.075184 57.0
167.056275 19.0
167.077805 78.0
168.064415 51.0
168.082185 35.0
169.043726 16.0
169.081926 34.0
170.096117 70.0
171.030078 27.0
171.085178 23.0
171.097988 21.0
173.058979 17.0
173.105369 15.0
174.12509 28.0
175.081691 23.0
175.133541 39.0
176.050001 21.0
177.067932 14.0
178.063913 51.0
178.075693 53.0
179.081084 42.0
179.086314 64.0
180.080095 31.0
181.023895 19.0
181.072665 29.0
181.089815 17.0
182.094406 27.0
183.038167 30.0
184.080038 20.0
185.043568 54.0
185.074218 53.0
187.04651 20.0
187.08001 19.0
187.11618 29.0
189.069661 74.0
190.062372 31.0
190.075852 39.0
191.003483 71.0
191.082033 37.0
192.081334 22.0
192.985264 70.0
194.097355 20.0
194.117825 42.0
194.977276 31.0
195.097676 18.0
196.100567 14.0
196.111537 33.0
199.123269 14.0
200.05469 28.0
201.02994 21.0
202.075791 35.0
203.079692 51.0
203.142522 23.0
204.083273 37.0
204.101453 48.0
205.085113 39.0
206.088004 15.0
206.109104 23.0
207.031315 129.0
208.030476 22.0
208.115266 15.0
209.037706 29.0
210.088537 22.0
212.086819 35.0
212.990849 15.0
213.072329 25.0
215.066051 35.0
217.071923 45.0
218.096443 14.0
225.041579 23.0
227.07122 16.0
227.12583 38.0
228.095361 23.0
230.091112 25.0
231.099703 15.0
233.122005 17.0
234.093725 20.0
236.085417 12.0
239.178109 13.0
242.092761 21.0
243.095212 17.0
247.121115 15.0
248.986457 17.0
254.962301 15.0
257.226043 14.0
259.088074 15.0
259.102264 15.0
261.102416 27.0
265.018919 39.0
266.01499 16.0
266.99213 25.0
267.01294 29.0
268.979072 21.0
271.134653 17.0
275.094556 16.0
281.053751 154.0
282.051532 40.0
289.113667 69.0
305.101169 34.0
306.09787 44.0
307.121921 5460.0

