>compound 
>formula C9H15N3O2S
>parentmass 230.095779418945
>ionization [M + H]+
>instrumentation Unknown (LCMS)
>source file:/Users/fanzhoukong/Documents/GitHub/Libgen/data/NIST_MONA/0_unknown_/spectrum.ms
>quality UNKNOWN

>ms2peaks
41.03825 40.389502
42.03327 13.513668
43.04247 11.216727
44.04989 4.465188
44.97626 1.569576
45.05737 5.876747
54.03388 6.523474
55.03117 1.074349
56.0505 16.544489
58.06458 8.08572
58.99472 7.422702
59.99109 11.20288
60.08208 51.681165
66.035 5.700811
67.04364 51.41156
68.05138 77.838595
69.05803 100.0
71.99038 2.085981
73.00793 1.128922
74.00887 2.100642
82.05183 2.13811
83.06236 12.863682
85.01279 1.277164
86.0061 5.031277
93.04749 8.959698
94.05304 23.603916
95.064 3.368032
100.0236 25.636139
113.0111 1.221777
114.0267 7.6638
115.0359 4.949826
125.016 1.378164
127.0362 38.68716
129.0137 1.278793
136.0834 1.425406
143.0317 4.71443

