>compound 
>formula C20H26O4
>parentmass 353.17233031626006
>ionization [M + Na]+
>instrumentation Unknown (LCMS)
>source file:/Users/fanzhoukong/Documents/GitHub/Libgen/data/EAD_PFP/0_unknown_/spectrum.ms
>quality UNKNOWN

>ms2peaks
126.040149 33.0
126.047849 69.0
127.055099 105.0
128.058609 280.0
129.071609 230.0
130.060678 55.0
130.069618 55.0
131.070348 82.0
132.085048 32.0
133.097998 44.0
134.094418 31.0
135.076338 55.0
137.085287 55.0
137.125437 50.0
138.051597 41.0
139.051327 95.0
140.050027 66.0
141.068577 274.0
142.067487 112.0
143.080456 139.0
144.086436 31.0
145.071156 31.0
145.098306 143.0
146.092396 16.0
147.082776 22.0
163.054354 90.0
164.059113 35.0
165.070763 375.0
166.071613 88.0
167.076753 168.0
167.083093 90.0
168.087463 75.0
169.065573 114.0
170.093783 108.0
170.100183 51.0
171.076422 127.0
172.084992 27.0
172.113272 46.0
173.128792 72.0
174.133042 68.0
175.116882 86.0
175.144122 55.0
176.059312 54.0
177.068122 87.0
177.122872 31.0
178.075881 169.0
179.082601 124.0
179.093081 71.0
180.084251 102.0
181.008291 73.0
181.072881 40.0
181.088691 62.0
182.188461 78.0
183.116561 106.0
185.07042 58.0
185.1024 94.0
185.13571 48.0
187.07617 170.0
188.0596 28.0
189.07524 104.0
190.06795 63.0
191.00369 39.0
191.08087 125.0
191.14316 30.0
192.076099 70.0
192.096469 66.0
192.978649 66.0
194.092069 48.0
194.108459 53.0
195.096479 151.0
197.099339 42.0
197.128209 108.0
198.122508 33.0
199.068158 63.0
199.124828 86.0
199.149718 79.0
200.046558 24.0
201.164868 403.0
202.074588 58.0
203.086848 66.0
203.141298 50.0
204.077848 47.0
205.093707 82.0
205.135797 44.0
206.090987 41.0
207.034297 149.0
208.109767 36.0
209.097367 31.0
210.031917 23.0
211.093777 77.0
211.150707 78.0
212.118376 25.0
213.096816 48.0
213.164026 122.0
215.066216 61.0
215.083466 53.0
216.081676 44.0
217.085076 50.0
217.161606 34.0
218.109636 24.0
219.097435 44.0
219.168495 54.0
221.145295 108.0
223.054885 38.0
223.113395 36.0
225.053495 28.0
225.116695 53.0
227.065454 36.0
227.142224 30.0
229.050774 76.0
231.166884 66.0
233.153563 45.0
235.132223 69.0
237.081533 99.0
237.113213 62.0
237.155453 85.0
239.094953 45.0
239.181303 32.0
240.188332 47.0
241.043852 39.0
241.164012 43.0
243.060222 93.0
243.066342 151.0
244.072322 101.0
245.149412 73.0
247.173611 112.0
249.153561 29.0
251.108801 129.0
252.107951 87.0
253.13091 46.0
253.19637 52.0
254.19498 71.0
257.16802 56.0
259.16231 58.0
261.107289 44.0
261.184839 38.0
263.124659 36.0
265.071679 65.0
266.018299 37.0
266.998648 50.0
267.182758 37.0
269.012928 30.0
271.060568 153.0
271.133168 169.0
271.204148 107.0
272.067918 497.0
275.041067 35.0
275.197037 43.0
277.175067 60.0
279.130727 57.0
280.182487 117.0
281.047286 107.0
282.054916 32.0
283.166526 39.0
285.149796 51.0
289.068805 64.0
289.205405 142.0
289.215375 195.0
290.182455 56.0
291.189595 70.0
293.131945 128.0
294.160965 37.0
299.172224 45.0
300.206684 44.0
303.151963 28.0
307.142593 64.0
307.188953 77.0
308.171833 28.0
309.163192 78.0
313.182632 69.0
315.163831 83.0
317.203631 180.0
317.214091 117.0
318.214611 76.0
321.122081 34.0
322.15162 41.0
325.14232 79.0
335.186659 139.0
335.206369 162.0
336.170208 277.0
337.140818 479.0
338.148848 442.0
351.160746 395.0
352.009376 47.0
352.152746 51.0
353.179296 4234.0
353.190316 8401.0

