>compound 
>formula C21H27NO3
>parentmass 342.20637473335
>ionization [M + H]+
>instrumentation Unknown (LCMS)
>source file:/Users/fanzhoukong/Documents/GitHub/Libgen/data/EAD_PFP/0_unknown_/spectrum.ms
>quality UNKNOWN

>ms2peaks
50.014228 593.0
51.02313 1503.0
52.025852 67.0
53.039055 485.0
54.035377 41.0
55.037339 112.0
55.051869 426.0
56.049232 1182.0
57.061464 29.0
58.065586 37.0
60.982763 31.0
60.998063 28.0
61.011833 43.0
62.017576 47.0
63.022208 272.0
65.037513 1168.0
66.043925 96.0
67.054858 458.0
68.05002 147.0
69.068802 1090.0
70.063995 384.0
71.087767 18.0
72.936571 22.0
74.013914 90.0
75.022776 131.0
76.029058 219.0
77.041201 1796.0
78.045313 209.0
79.054186 1127.0
80.049378 227.0
81.04374 188.0
81.05697 256.0
82.063763 335.0
83.065165 33.0
84.079817 1608.0
85.010289 25.0
85.06269 36.0
85.816061 24.0
86.099432 2689.0
87.030934 52.0
88.030847 51.0
89.038329 541.0
90.043171 46.0
91.055524 1902.0
92.045326 21.0
92.055666 112.0
93.066008 162.0
94.064761 86.0
95.047823 28.0
95.086983 84.0
96.049445 60.0
96.083055 96.0
97.080448 33.0
98.09754 1850.0
101.041737 27.0
102.043689 349.0
103.056562 1276.0
104.053444 46.0
104.062434 70.0
105.034036 526.0
105.056126 113.0
106.064629 79.0
107.073891 111.0
107.083011 296.0
108.074693 26.0
109.069926 57.0
110.063548 60.0
110.093358 91.0
112.077793 2168.0
112.999585 42.0
113.039165 17.0
114.052757 36.0
114.088327 94.0
115.05406 1893.0
116.061852 216.0
117.052834 35.0
117.064494 260.0
118.068267 70.0
119.051729 57.0
119.084869 26.0
120.082211 170.0
121.059994 103.0
121.064304 104.0
122.050406 61.0
122.098026 42.0
123.042678 30.0
124.113161 94.0
125.078703 16.0
125.095143 26.0
126.046895 117.0
126.090886 30.0
127.054138 506.0
128.06318 1401.0
129.070643 740.0
130.051885 137.0
130.063055 39.0
130.074245 39.0
131.051437 963.0
132.06494 19.0
133.063122 107.0
134.073034 36.0
134.095724 52.0
134.624865 37.0
135.050316 3477.0
136.057409 40.0
136.113409 31.0
137.053351 17.0
138.093194 884.0
139.051496 89.0
140.104688 131.0
141.072251 390.0
142.075843 45.0
143.052515 63.0
143.070095 162.0
144.061928 77.0
144.080748 44.0
145.05601 60.0
145.06546 142.0
146.087842 36.0
147.042565 368.0
148.052817 295.0
149.048609 82.0
149.059359 336.0
150.089712 293.0
151.052574 78.0
151.062204 59.0
151.074244 46.0
152.071656 177.0
152.081326 153.0
152.106686 23.0
153.069929 243.0
154.077551 15.0
154.099431 92.0
154.112811 76.0
154.120101 97.0
155.056753 37.0
155.067743 78.0
155.083593 289.0
156.056196 26.0
156.078206 35.0
156.094126 48.0
157.067438 929.0
158.06593 46.0
158.07948 118.0
159.035473 23.0
159.046583 272.0
159.054003 211.0
159.081173 86.0
160.051345 31.0
160.081085 41.0
161.065477 2283.0
162.04417 30.0
162.12772 20.0
163.049582 51.0
163.057082 26.0
164.110804 218.0
165.069737 278.0
166.080689 34.0
166.109709 157.0
166.123609 312.0
167.079531 38.0
167.083331 69.0
168.108034 65.0
168.137264 111.0
169.068366 205.0
170.082528 63.0
170.106788 27.0
171.117661 795.0
172.051853 57.0
173.060735 778.0
174.067388 98.0
174.079018 26.0
175.05752 140.0
175.07568 191.0
176.056952 25.0
176.142753 28.0
177.090545 38.0
178.077467 70.0
178.128447 47.0
179.085479 47.0
180.080552 31.0
180.141042 36.0
181.071814 95.0
181.084994 71.0
181.094234 116.0
182.085606 29.0
182.157007 21.0
183.078399 103.0
183.092969 90.0
184.088481 135.0
185.058703 611.0
186.066206 133.0
187.075128 762.0
188.0478 104.0
188.06525 53.0
189.089003 503.0
191.009397 17.0
191.067607 32.0
192.14972 44.0
192.1796 87.0
193.067412 29.0
193.143652 51.0
194.088275 21.0
194.149715 55.0
194.152445 89.0
195.095417 33.0
197.073502 29.0
197.095522 98.0
198.103514 40.0
199.111326 1901.0
200.082889 67.0
201.055441 54.0
201.094341 18.0
201.127681 23.0
202.079083 22.0
203.069016 26.0
203.335736 39.0
204.139758 22.0
205.12349 54.0
206.153203 497.0
207.033235 29.0
207.058595 22.0
208.022497 17.0
209.0892 79.0
209.10054 131.0
211.094114 38.0
211.114044 71.0
212.083037 16.0
213.092869 287.0
213.865771 15.0
214.087901 39.0
215.108244 307.0
217.078218 17.0
218.115771 31.0
219.092003 18.0
220.172136 1192.0
223.071352 22.0
226.079349 16.0
226.097039 13.0
227.108632 192.0
228.113644 261.0
228.381515 19.0
229.123816 5139.0
230.082729 20.0
230.128799 81.0
235.11608 21.0
237.094005 21.0
239.1014 170.0
240.178112 28.0
242.982759 23.0
244.135502 27.0
247.103188 25.0
255.144347 20.0
256.10915 45.0
257.111922 64.0
257.118212 785.0
258.119774 60.0
259.132777 30.0
260.127219 58.0
261.134641 50.0
265.097661 19.0
266.995915 15.0
272.126577 21.0
273.135889 35.0
274.122732 17.0
279.199984 12.0
281.039558 47.0
281.056008 58.0
284.132225 17.0
288.202205 37.0
289.215907 36.0
297.110825 38.0
298.148518 29.0
300.176693 45.0
306.218457 18.0
307.218669 20.0
310.129076 41.0
312.200981 77.0
314.206875 58.0
314.210355 182.0
324.193259 35.0
340.189936 54.0
341.079468 38.0
341.202519 45.0
342.211181 5994.0

