>compound 
>formula C18H28O4
>parentmass 331.18798038072003
>ionization [M + Na]+
>instrumentation Unknown (LCMS)
>source file:/Users/fanzhoukong/Documents/GitHub/Libgen/data/EAD_PFP/0_unknown_/spectrum.ms
>quality UNKNOWN

>ms2peaks
50.015512 86.0
51.023722 319.0
52.023623 10.0
52.029273 21.0
53.038934 57.0
54.045324 7.0
55.053185 188.0
55.933265 21.0
56.047615 12.0
57.033186 8.0
57.070926 18.0
57.935596 10.0
60.984098 45.0
61.009348 7.0
62.015059 46.0
63.022769 152.0
64.02528 7.0
65.039651 768.0
66.041301 43.0
67.053802 156.0
68.996103 123.0
69.070173 8.0
70.072744 7.0
71.047854 9.0
72.079595 8.0
74.014456 32.0
75.021617 18.0
76.029597 82.0
77.038298 552.0
78.044978 80.0
79.053849 242.0
80.053409 85.0
81.06808 49.0
82.064291 13.0
83.086221 16.0
84.086632 8.0
84.959332 5.0
86.013613 6.0
87.022304 9.0
88.024924 6.0
89.039755 160.0
90.046465 35.0
91.054156 847.0
92.056176 110.0
93.050447 26.0
93.067457 54.0
94.051008 17.0
94.066208 11.0
95.049278 5.0
95.084618 51.0
95.952999 14.0
97.064529 28.0
98.01654 11.0
98.982951 307.0
99.991321 9.0
101.060932 8.0
102.046152 49.0
103.051073 46.0
104.051924 23.0
104.061914 23.0
105.070664 112.0
106.065105 25.0
107.072335 16.0
107.082475 23.0
108.086366 13.0
109.063236 5.0
109.085736 7.0
109.101086 21.0
110.998148 20.0
111.043558 8.0
112.997969 34.0
114.045889 8.0
115.05452 460.0
116.052811 8.0
116.058081 81.0
117.064951 102.0
118.062322 31.0
119.063932 9.0
119.084242 39.0
120.080503 28.0
121.073373 44.0
121.100323 15.0
122.035694 27.0
122.096304 7.0
123.044205 56.0
123.082235 6.0
125.057236 6.0
126.048426 47.0
126.901137 10.0
127.054577 57.0
128.062508 376.0
129.064408 26.0
129.066628 67.0
130.064609 77.0
130.992449 27.0
131.075419 31.0
131.082149 20.0
132.01921 5.0
132.05298 17.0
132.08 11.0
133.02287 6.0
133.101971 38.0
134.076841 5.0
135.115622 12.0
136.038412 10.0
137.060643 68.0
139.039204 15.0
139.056534 33.0
140.051765 7.0
141.069175 82.0
141.927986 11.0
142.069236 14.0
143.069326 19.0
144.077617 21.0
145.085918 21.0
145.097728 9.0
145.969868 20.0
146.091808 10.0
147.079779 5.0
147.966209 11.0
149.09564 9.0
150.04569 17.0
151.050551 14.0
151.052961 39.0
151.074621 22.0
152.059962 117.0
153.069102 77.0
154.064553 25.0
154.071853 54.0
155.065673 35.0
155.082743 38.0
156.082274 29.0
157.080095 21.0
157.100965 12.0
158.076155 11.0
158.095875 30.0
158.103255 19.0
159.043256 10.0
159.085266 13.0
159.103786 14.0
159.114916 28.0
160.086426 5.0
160.098816 6.0
160.114926 10.0
161.060887 15.0
161.098187 5.0
161.134247 13.0
162.136828 31.0
162.997428 10.0
163.056198 15.0
163.074968 13.0
164.060979 29.0
165.070099 164.0
166.06463 14.0
166.07473 48.0
167.07482 32.0
167.08622 28.0
168.075371 18.0
169.063622 9.0
169.080172 9.0
169.086552 20.0
170.075212 16.0
170.090532 14.0
170.096932 25.0
171.091103 9.0
171.100073 13.0
171.115453 19.0
172.074023 7.0
172.085613 10.0
173.099744 10.0
173.133244 10.0
174.050925 5.0
174.991765 5.0
175.074715 10.0
175.109715 14.0
175.148595 16.0
176.061216 20.0
176.990516 25.0
177.064796 13.0
178.077797 61.0
179.051737 25.0
179.074017 14.0
179.084517 20.0
180.078278 22.0
180.084848 18.0
180.172938 8.0
181.085329 25.0
182.081979 7.0
182.093889 13.0
182.190379 8.0
183.07606 8.0
183.10258 10.0
183.12247 5.0
184.0835 8.0
185.095021 10.0
185.131001 12.0
186.105282 7.0
187.114302 9.0
187.146452 20.0
188.126043 5.0
189.070463 20.0
189.089323 8.0
190.065864 10.0
190.133394 7.0
191.001594 29.0
191.069274 12.0
192.080785 13.0
192.980626 48.0
192.999666 16.0
193.018746 5.0
193.100406 8.0
193.986246 13.0
194.096796 14.0
194.968497 7.0
195.098467 21.0
195.116267 15.0
196.080767 6.0
196.121937 5.0
197.094448 11.0
197.113698 11.0
197.132938 10.0
199.083979 8.0
200.06242 5.0
201.09185 8.0
202.072411 15.0
203.083282 7.0
203.105622 7.0
204.081262 11.0
204.145642 9.0
205.157453 11.0
206.069103 10.0
206.126763 7.0
207.032104 82.0
208.034104 20.0
208.065164 5.0
209.027155 9.0
210.032536 11.0
211.074476 7.0
211.101516 6.0
212.137547 7.0
213.107457 13.0
214.162718 7.0
215.085509 13.0
216.092379 6.0
217.08281 19.0
218.09868 14.0
219.098061 20.0
221.113862 11.0
222.061733 17.0
222.120123 7.0
223.097933 4.0
224.080814 23.0
224.117504 7.0
225.086444 8.0
225.104084 9.0
226.066335 6.0
227.066076 6.0
227.105956 13.0
228.076896 9.0
228.158276 6.0
229.049937 18.0
229.101837 7.0
230.097837 12.0
231.101968 12.0
231.134728 7.0
232.142619 18.0
234.06454 9.0
235.12684 13.0
237.110821 10.0
237.133471 5.0
239.074353 6.0
240.058413 5.0
241.091634 8.0
241.120534 5.0
242.987555 8.0
245.113236 17.0
246.126527 6.0
247.132667 6.0
248.139318 7.0
248.991858 11.0
249.146478 8.0
250.157199 10.0
251.00234 6.0
252.0666 6.0
252.07436 20.0
253.080121 8.0
253.112851 8.0
254.095671 6.0
254.867652 8.0
257.082283 6.0
259.065164 6.0
259.132974 6.0
259.164504 7.0
261.980846 6.0
262.255236 4.0
263.126907 14.0
265.019698 23.0
266.022138 10.0
266.997699 18.0
267.176989 20.0
268.98464 6.0
269.19356 5.0
270.087941 15.0
271.154771 31.0
273.110163 6.0
277.149625 9.0
278.052235 6.0
278.142085 11.0
278.184566 22.0
281.054527 76.0
282.053918 16.0
283.048518 9.0
283.172148 6.0
285.008209 5.0
285.12069 9.0
285.15045 10.0
285.18023 8.0
287.153931 17.0
289.071132 8.0
289.174382 9.0
295.172275 37.0
296.059906 14.0
299.062748 9.0
299.088168 6.0
303.08955 6.0
313.070636 15.0
313.107036 6.0
313.176376 56.0
315.174937 14.0
329.191795 35.0
331.210447 1944.0

