>compound 
>formula C29H26O16
>parentmass 653.1113057511001
>ionization [M + Na]+
>instrumentation Unknown (LCMS)
>source file:/Users/fanzhoukong/Documents/GitHub/Libgen/data/EAD_PFP/0_unknown_/spectrum.ms
>quality UNKNOWN

>ms2peaks
126.899532 65.0
127.055182 122.0
128.062013 220.0
129.069473 54.0
130.063004 69.0
131.055864 58.0
131.072694 74.0
132.067125 26.0
133.018995 31.0
133.906266 31.0
135.120816 45.0
138.047088 11.0
139.053728 54.0
140.053589 29.0
141.068679 99.0
142.05356 29.0
143.07235 79.0
144.077141 131.0
145.978862 29.0
147.043662 227.0
163.05322 25.0
165.065841 79.0
165.068361 333.0
166.066682 68.0
167.073072 97.0
168.069823 26.0
168.077443 110.0
169.026213 206.0
170.093904 55.0
171.071414 25.0
172.099265 28.0
173.993596 186.0
174.997776 302.0
176.089327 28.0
177.066947 18.0
178.076028 85.0
179.082728 63.0
180.081749 50.0
181.071679 81.0
181.094089 41.0
182.09606 29.0
183.03584 31.0
184.035181 62.0
185.058561 54.0
186.024652 27.0
187.048182 48.0
187.077662 31.0
189.071343 124.0
190.995714 73.0
192.002945 85.0
192.980165 48.0
192.996485 52.0
194.067676 20.0
195.102116 21.0
199.073858 50.0
201.070559 25.0
202.07613 47.0
203.08002 62.0
204.082201 41.0
205.086861 40.0
207.031652 97.0
208.037883 37.0
209.028133 14.0
211.076864 26.0
212.144215 30.0
213.038365 141.0
218.093888 26.0
223.14432 11.0
225.046321 25.0
227.073032 59.0
229.043563 24.0
230.058763 32.0
231.065794 165.0
233.089435 37.0
237.137547 23.0
239.081508 24.0
241.083599 18.0
242.98559 30.0
245.112801 12.0
248.027792 46.0
248.991433 19.0
250.967774 24.0
251.963524 12.0
255.062756 92.0
257.037887 20.0
265.012901 50.0
266.997272 37.0
273.074115 44.0
277.033447 129.0
279.054068 31.0
281.054109 89.0
283.01678 20.0
283.02832 55.0
284.05435 27.0
290.039213 43.0
299.072518 20.0
313.061565 61.0
313.068495 576.0
317.025957 24.0
318.041917 90.0
319.045488 242.0
321.113599 18.0
329.077683 22.0
331.083484 3073.0
335.029135 39.0
336.046596 67.0
337.054776 127.0
353.024964 12.0
365.451641 12.0
367.202861 36.0
400.994598 42.0
423.070869 19.0
425.08619 26.0
441.076708 17.0
443.101429 445.0
453.084004 20.0
461.109708 1131.0
464.078429 46.0
465.08139 317.0
467.103241 22.0
481.071778 190.0
481.471498 40.0
481.523108 36.0
482.084328 1041.0
483.093629 2046.0
483.100069 7478.0
487.054881 15.0
489.058912 27.0
503.501239 12.0
505.06535 34.0
507.072951 36.0
527.464931 12.0
576.070855 12.0
616.353345 12.0
617.151315 33.0
635.133504 19.0
651.097252 52.0
652.095062 86.0
652.117522 285.0
653.108553 4382.0

