>compound 
>formula C25H28O12
>parentmass 543.1472973372801
>ionization [M + Na]+
>instrumentation Unknown (LCMS)
>source file:/Users/fanzhoukong/Documents/GitHub/Libgen/data/EAD_PFP/0_unknown_/spectrum.ms
>quality UNKNOWN

>ms2peaks
126.043416 34.0
127.055065 38.0
128.062994 226.0
129.067112 22.0
130.067331 95.0
131.06019 47.0
131.08151 46.0
133.064038 24.0
134.075067 27.0
137.001484 26.0
139.055851 54.0
140.05921 36.0
141.067319 68.0
142.068548 54.0
143.075657 45.0
144.081616 23.0
145.966794 11.0
147.043433 523.0
161.042707 11.0
163.050405 44.0
164.060174 32.0
165.066783 174.0
166.071402 56.0
167.074011 76.0
168.069479 68.0
169.025868 409.0
170.098667 43.0
171.044146 50.0
172.105325 40.0
175.038872 43.0
175.060912 39.0
176.060361 40.0
177.066569 39.0
178.071708 64.0
179.069217 44.0
180.087906 50.0
181.062045 41.0
182.090354 46.0
182.099594 35.0
183.083133 46.0
184.033422 46.0
185.039471 74.0
186.0309 55.0
187.034348 33.0
189.066856 98.0
190.051435 18.0
190.073055 55.0
191.002004 61.0
191.071064 61.0
192.986502 70.0
193.095392 29.0
195.0989 42.0
197.054997 36.0
199.051235 62.0
199.071955 11.0
201.039483 83.0
201.149223 31.0
202.077002 62.0
203.073921 31.0
203.122781 48.0
204.08167 29.0
205.070889 24.0
206.096247 25.0
207.032526 111.0
208.102325 52.0
209.077154 11.0
210.129493 31.0
212.97346 15.0
213.06924 34.0
214.081419 42.0
215.074428 66.0
215.087358 75.0
217.052925 224.0
218.060024 38.0
220.110292 31.0
223.067619 23.0
225.044237 34.0
228.035873 30.0
229.050332 51.0
230.056631 65.0
232.031089 24.0
233.040918 34.0
235.065646 130.0
239.064151 19.0
240.07701 24.0
246.125373 40.0
247.106882 20.0
248.238471 31.0
250.971678 31.0
255.240383 12.0
263.058945 29.0
265.021653 60.0
267.00285 40.0
268.020279 12.0
273.037664 28.0
274.103832 30.0
276.09257 31.0
281.049925 33.0
283.052153 36.0
285.07141 20.0
291.085284 248.0
293.064192 21.0
295.078379 12.0
301.063763 24.0
302.067452 20.0
303.084751 29.0
304.098639 47.0
306.985656 22.0
308.093725 51.0
309.100434 507.0
313.06921 84.0
317.099935 34.0
319.077713 20.0
331.07883 3611.0
333.087157 30.0
335.099765 36.0
336.093964 12.0
338.083192 33.0
347.076312 72.0
349.09224 1279.0
361.092567 34.0
363.135654 12.0
377.092579 63.0
379.092667 75.0
379.109817 49.0
381.021525 41.0
392.103732 22.0
395.092829 33.0
418.359563 12.0
424.396297 12.0
429.121662 188.0
437.158463 32.0
439.18855 25.0
451.136957 18.0
453.117885 59.0
467.1482 12.0
469.123637 48.0
481.149624 33.0
484.188531 21.0
494.12229 20.0
495.128849 420.0
497.149417 87.0
498.150305 97.0
499.156554 520.0
506.101067 12.0
507.137386 31.0
511.124961 52.0
523.127568 32.0
525.134836 815.0
526.140995 59.0
541.130608 110.0
542.142867 678.0
543.149216 5467.0
543.172046 7354.0

