>compound 
>formula C18H14O3
>parentmass 279.10157530993
>ionization [M + H]+
>instrumentation Unknown (LCMS)
>source file:/Users/fanzhoukong/Documents/GitHub/Libgen/data/EAD_PFP/0_unknown_/spectrum.ms
>quality UNKNOWN

>ms2peaks
115.052918 78.0
115.060278 182.0
117.064394 64.0
117.074984 30.0
119.08687 65.0
126.046688 28.0
127.053926 85.0
128.069614 36.0
137.145937 44.0
139.056944 143.0
141.06958 265.0
142.993567 44.0
143.086127 22.0
145.081583 39.0
145.102823 163.0
146.105211 34.0
147.101549 59.0
147.120559 275.0
149.027836 2477.0
150.048474 1044.0
151.056942 1914.0
151.572691 35.0
152.06516 5675.0
153.064609 85.0
153.069469 1571.0
154.067347 60.0
154.084367 176.0
155.059925 129.0
155.087975 646.0
156.077733 71.0
157.069381 50.0
158.104829 32.0
159.089308 53.0
159.115248 114.0
160.027266 47.0
160.049566 54.0
161.037594 101.0
161.115914 27.0
161.135814 172.0
162.049842 154.0
163.05777 2877.0
164.063799 2076.0
165.075437 13752.0
165.797405 25.0
166.080075 1408.0
167.065003 156.0
167.083983 938.0
168.057891 103.0
168.075661 66.0
169.070289 2098.0
170.083168 48.0
171.072166 50.0
171.117006 33.0
173.127072 107.0
173.133512 321.0
174.04732 58.0
175.043879 83.0
175.059429 230.0
176.065377 4754.0
177.072905 3277.0
178.081983 18004.0
179.088691 12112.0
180.092979 1688.0
181.076338 310.0
181.098758 783.0
181.527457 36.0
181.708326 41.0
182.065046 55.0
182.076936 59.0
183.020624 56.0
183.135954 29.0
185.0366 28.0
185.05259 89.0
186.049389 124.0
187.058247 2301.0
187.551626 57.0
188.064455 2306.0
188.448874 67.0
188.475754 56.0
188.668144 51.0
189.078753 20303.0
190.080921 14931.0
190.77712 44.0
191.087099 2363.0
192.071488 157.0
192.080988 287.0
192.093218 309.0
193.089706 1649.0
193.577345 34.0
194.091514 463.0
194.109264 181.0
195.102762 436.0
195.112342 1108.0
196.09743 33.0
197.064369 93.0
197.133118 43.0
198.061247 40.0
199.055135 79.0
200.051493 69.0
200.062593 366.0
201.073951 707.0
201.419991 41.0
202.080929 9582.0
203.090398 10911.0
204.096806 5024.0
205.108514 19896.0
206.077682 306.0
207.08299 2419.0
207.634549 50.0
207.768679 42.0
208.092158 1991.0
208.541778 55.0
209.103777 6184.0
210.069575 29.0
210.669164 31.0
211.068903 33.0
212.060611 86.0
213.066109 262.0
213.070389 817.0
214.081118 694.0
215.089936 6436.0
216.093914 566.0
217.068492 637.0
217.077142 219.0
218.07853 12982.0
219.085109 741.0
219.752607 39.0
220.048947 62.0
220.079457 57.0
220.096897 73.0
221.070255 299.0
221.090645 507.0
222.061813 123.0
222.088073 194.0
222.098303 586.0
223.086301 219.0
223.098011 837.0
223.112661 663.0
225.043918 78.0
225.055668 121.0
226.053156 21.0
229.06927 109.0
229.08112 60.0
230.060749 38.0
231.085637 1767.0
232.090425 2598.0
232.342714 173.0
233.098893 23049.0
234.067561 127.0
234.397411 235.0
235.081809 3726.0
236.081708 493.0
236.092238 624.0
237.089726 248.0
238.063654 95.0
243.080715 113.0
243.094445 229.0
245.061091 175.0
246.069659 1146.0
247.078758 33.0
249.053684 212.0
249.092314 726.0
250.101412 278.0
251.09233 1198.0
251.10321 3655.0
259.080866 935.0
259.508355 40.0
260.089414 562.0
260.163694 113.0
260.495603 41.0
261.095182 19505.0
262.08385 79.0
263.072809 1919.0
264.087487 3638.0
274.797947 280.0
277.087523 186.0
277.562252 77.0
278.091301 394.0
279.109979 10542.0

