>compound 
>formula C19H22O6
>parentmass 347.14891942648
>ionization [M + H]+
>instrumentation Unknown (LCMS)
>source file:/Users/fanzhoukong/Documents/GitHub/Libgen/data/EAD_PFP/0_unknown_/spectrum.ms
>quality UNKNOWN

>ms2peaks
105.036799 35.0
115.052721 61.0
116.063671 36.0
117.069501 526.0
121.059682 167.0
121.065072 480.0
123.043443 2258.0
126.046563 263.0
127.053813 1438.0
128.060644 1121.0
129.050274 121.0
129.071424 291.0
130.040394 128.0
130.052674 277.0
130.609624 29.0
131.051084 5728.0
132.058965 79.0
133.065045 393.0
134.019365 82.0
134.034105 133.0
135.063605 158.0
135.078405 217.0
136.051335 572.0
137.059866 853.0
139.048816 48.0
139.053436 148.0
140.057936 42.0
141.071876 448.0
142.074297 59.0
143.049797 937.0
144.059197 224.0
145.065067 5607.0
147.042168 113.0
148.053608 71.0
149.062548 391.0
159.08198 22.0
161.062551 512.0
162.067401 983.0
163.085391 8821.0
164.076471 247.0
165.057942 3706.0
165.972942 68.0
166.071392 75.0
167.067662 114.0
167.084132 135.0
168.052952 112.0
169.069162 351.0
170.074383 43.0
171.081313 252.0
172.074483 27.0
173.058943 623.0
174.059133 127.0
174.069463 379.0
175.075174 1361.0
176.062964 66.0
176.078564 148.0
176.959694 339.0
177.053534 149.0
178.071724 127.0
179.078414 80.0
180.072175 22.0
180.086625 56.0
181.062065 113.0
181.087125 60.0
182.069245 59.0
182.190865 50.0
183.084495 188.0
184.113206 31.0
185.063506 37.0
185.096826 30.0
185.115496 40.0
186.072366 49.0
187.073236 656.0
188.079506 182.0
189.088457 855.0
190.063647 49.0
191.073837 651.0
192.079927 200.0
193.084567 1197.0
194.100008 36.0
194.974468 143.0
195.974308 27.0
197.094938 27.0
199.073429 44.0
200.082319 110.0
201.088199 722.0
202.074309 90.0
202.97769 78.0
203.0768 28.0
204.08037 53.0
204.96439 116.0
204.9756 115.0
205.08643 351.0
206.09071 166.0
207.1017 1056.0
208.067111 23.0
208.110921 27.0
210.045821 25.0
211.077841 27.0
211.989701 28.0
213.046492 56.0
215.078862 44.0
216.087142 19.0
217.094902 68.0
218.093433 32.0
218.973913 100.0
219.078293 40.0
219.097153 59.0
219.981103 46.0
221.000793 34.0
221.092563 32.0
222.937564 32.0
223.075074 48.0
225.028214 36.0
225.070834 53.0
226.065424 32.0
227.088785 35.0
229.973595 27.0
231.074245 36.0
233.094936 26.0
234.992236 51.0
235.067326 48.0
236.140957 22.0
236.987707 66.0
239.091587 98.0
241.084608 22.0
243.061438 45.0
245.081618 29.0
245.095418 32.0
246.980819 45.0
247.074729 80.0
247.113229 35.0
248.989359 26.0
249.089839 59.0
251.04017 34.0
251.07122 65.0
253.10409 20.0
257.086011 57.0
261.007212 60.0
261.023052 29.0
263.070322 41.0
264.112072 38.0
265.092083 49.0
266.963093 42.0
269.081683 61.0
273.088124 23.0
275.107315 110.0
277.083395 38.0
281.063346 143.0
282.079246 59.0
283.052446 32.0
285.018757 22.0
287.031727 46.0
289.098408 23.0
291.102288 39.0
292.114368 55.0
293.114799 146.0
295.105609 77.0
297.018729 33.0
297.9937 25.0
299.00072 153.0
300.00097 30.0
307.004871 106.0
309.114552 42.0
310.117762 128.0
311.126062 454.0
315.102563 50.0
324.003565 33.0
325.016505 304.0
328.128686 26.0
329.132046 89.0
341.015109 62.0
347.03656 31.0
347.14426 256.0
347.15884 339.0

