>compound 
>formula C28H32O13
>parentmass 594.2181120857699
>ionization [M + H3N + H]+
>instrumentation Unknown (LCMS)
>source file:/Users/fanzhoukong/Documents/GitHub/Libgen/data/EAD_PFP/0_unknown_/spectrum.ms
>quality UNKNOWN

>ms2peaks
115.05614 5074.0
116.061822 229.0
117.069774 1200.0
118.042687 199.0
119.048499 101.0
119.090179 173.0
121.023324 89.0
123.043738 107.0
126.043565 148.0
127.055218 911.0
128.05207 126.0
129.068392 104.0
131.050287 362.0
139.057246 137.0
141.067571 151.0
143.050145 722.0
144.058358 440.0
145.06424 8019.0
146.036912 256.0
147.043715 414.0
148.052787 662.0
149.044979 177.0
151.039284 464.0
151.042904 1218.0
152.059536 703.0
153.057769 747.0
153.066259 821.0
154.064141 540.0
155.050623 508.0
156.057386 87.0
157.048988 790.0
157.063718 613.0
158.03634 391.0
159.046553 4810.0
160.053785 878.0
161.060477 1128.0
163.044532 262.0
164.053054 230.0
164.068094 175.0
165.065917 966.0
166.064239 539.0
167.069351 471.0
168.080074 1129.0
169.084896 2561.0
170.035208 249.0
171.043321 3214.0
172.056943 657.0
172.508274 76.0
173.060685 10223.0
174.069918 145.0
175.03805 1129.0
176.060812 306.0
177.057915 253.0
177.067025 365.0
178.064347 226.0
179.057909 218.0
179.085439 205.0
180.072632 133.0
181.087594 3276.0
182.073676 89.0
183.058469 149.0
184.064511 338.0
185.065323 1345.0
186.064836 379.0
187.046938 298.0
188.04641 2049.0
189.059323 8361.0
190.065505 965.0
191.070277 698.0
191.075697 831.0
193.049682 110.0
193.068742 116.0
193.081002 158.0
194.071864 203.0
195.059807 194.0
195.076227 86.0
196.051619 217.0
197.067961 284.0
198.089694 538.0
199.040786 864.0
200.046818 1154.0
201.055401 5147.0
202.060923 766.0
203.073166 12003.0
204.052928 256.0
205.0533 139.0
205.06732 294.0
207.054325 198.0
208.059177 150.0
209.05941 268.0
210.080472 251.0
211.078414 277.0
212.051627 484.0
213.055649 117.0
215.050714 324.0
216.043106 246.0
217.053638 456.0
218.057861 244.0
219.042633 1023.0
220.073245 99.0
221.064038 188.0
221.077138 307.0
223.037642 141.0
223.074212 277.0
224.051195 494.0
225.055287 266.0
226.074879 79.0
227.070212 191.0
228.042584 775.0
229.049636 4841.0
230.060389 359.0
231.059981 85.0
231.088271 160.0
233.050696 159.0
234.062748 72.0
235.06648 130.0
235.07849 284.0
237.059245 336.0
238.078447 174.0
239.06954 1295.0
241.053324 170.0
242.059717 71.0
243.066699 132.0
245.068484 152.0
246.057086 2845.0
247.069248 24755.0
249.019403 704.0
249.096703 134.0
255.064497 80.0
259.063346 209.0
265.05295 153.0
266.057073 160.0
267.063085 556.0
268.075818 160.0
269.08565 178.0
270.078052 166.0
275.054474 196.0
275.060974 394.0
276.077366 63.0
277.082549 257.0
279.060793 250.0
279.103343 127.0
280.100926 108.0
281.083838 197.0
282.08989 4853.0
283.074663 559.0
284.077655 190.0
285.074147 80.0
286.09393 131.0
289.075897 136.0
290.777291 207.0
291.081391 202.0
291.101441 201.0
292.068334 74.0
292.110174 233.0
293.083746 242.0
295.089611 165.0
295.104751 154.0
296.074873 209.0
297.082045 138.0
298.084158 1192.0
299.05746 131.0
299.08627 239.0
305.079474 111.0
305.089754 198.0
307.091559 288.0
307.100139 314.0
309.080983 181.0
309.110273 151.0
310.085866 83.0
311.097588 115.0
312.11092 111.0
313.110313 9705.0
315.082577 63.0
315.091277 147.0
319.075477 250.0
319.099957 97.0
320.110489 68.0
321.094491 308.0
322.102894 150.0
322.125744 246.0
323.098776 383.0
324.094439 422.0
325.086291 152.0
326.102713 55.0
327.085265 68.0
328.081728 155.0
329.10989 208.0
334.079722 62.0
335.088544 113.0
335.104694 115.0
336.106097 171.0
337.110769 644.0
338.115161 790.0
339.117454 559.0
339.131864 723.0
340.079646 117.0
340.097716 383.0
341.104738 144.0
342.116881 55.0
348.105975 143.0
349.097307 90.0
350.104729 59.0
351.098902 170.0
351.120932 105.0
353.120936 278.0
353.139366 864.0
354.113859 557.0
355.119261 518.0
365.118614 141.0
367.105499 414.0
367.128019 515.0
369.135414 523.0
370.141176 69.0
371.163369 112.0
372.124641 94.0
379.122827 302.0
381.095762 136.0
382.106174 143.0
383.123667 495.0
384.125249 132.0
385.131971 106.0
391.099235 79.0
396.125187 844.0
397.143619 10650.0
398.137922 326.0
399.111954 189.0
400.116566 221.0
401.136159 118.0
407.775424 56.0
409.123697 15210.0
413.118117 64.0
414.130209 3777.0
415.129571 1274.0
415.141561 5701.0
426.147537 98.0
432.132081 137.0
439.141098 75.0
442.139275 60.0
493.151474 45.0
546.176228 57.0
576.207668 278.0
577.19339 710.0
594.22016 193.0

