>compound 
>formula C12H20O2
>parentmass 219.13555088374
>ionization [M + Na]+
>instrumentation Unknown (LCMS)
>source file:/Users/fanzhoukong/Documents/GitHub/Libgen/data/EAD_PFP/0_unknown_/spectrum.ms
>quality UNKNOWN

>ms2peaks
50.015025 247.0
51.023925 426.0
52.031585 35.0
53.037694 66.0
54.039024 35.0
55.054814 408.0
55.934893 33.0
56.062443 17.0
56.964563 30.0
57.069603 240.0
59.050573 19.0
60.985762 59.0
61.011012 17.0
62.015182 37.0
63.025231 199.0
65.035811 74.0
65.039761 2330.0
66.044581 57.0
67.0547 367.0
68.02885 21.0
68.997 130.0
69.06781 51.0
71.053699 33.0
72.937169 47.0
73.028389 19.0
74.016188 23.0
75.003838 22.0
75.022508 35.0
76.031348 57.0
77.040048 1416.0
78.046737 174.0
79.056477 778.0
80.048167 31.0
80.049927 123.0
81.071616 628.0
83.051396 40.0
83.072826 38.0
84.999055 48.0
86.017235 25.0
87.025935 22.0
89.040644 169.0
90.038054 19.0
91.056914 2091.0
92.058003 112.0
93.071173 588.0
94.059493 30.0
95.086462 451.0
95.952922 28.0
96.083472 13.0
97.064452 73.0
99.035501 17.0
101.094311 15.0
102.04901 73.0
103.05593 288.0
104.0588 75.0
105.07255 1039.0
106.065979 52.0
107.085379 547.0
109.080478 101.0
109.099918 163.0
110.996958 29.0
111.042378 26.0
113.035297 35.0
114.032127 29.0
115.055397 1543.0
116.061076 205.0
117.066886 156.0
117.070066 912.0
118.064266 69.0
119.085116 640.0
120.081385 27.0
120.091045 40.0
121.086105 83.0
121.100115 65.0
123.088544 69.0
125.061394 50.0
126.045994 23.0
127.055443 443.0
128.063373 951.0
129.070833 462.0
130.076652 213.0
131.088622 1142.0
132.018952 29.0
132.092122 19.0
133.102852 507.0
133.960911 24.0
134.108341 41.0
134.111761 128.0
134.955981 152.0
135.117621 32.0
136.91933 42.0
137.06151 38.0
139.05393 42.0
139.0724 41.0
141.068859 183.0
142.074769 98.0
142.080609 95.0
143.084249 141.0
144.078478 42.0
144.091418 107.0
145.102108 655.0
146.078458 20.0
147.105588 48.0
147.119858 369.0
147.964687 32.0
149.061817 93.0
149.090517 34.0
150.042967 40.0
151.057436 48.0
151.075496 56.0
152.059616 129.0
153.072386 209.0
154.064196 57.0
154.078776 34.0
155.086045 268.0
156.080675 34.0
157.069895 56.0
157.100585 203.0
158.109034 193.0
159.081174 121.0
159.098474 219.0
159.104654 310.0
159.118254 259.0
160.087274 20.0
161.089074 61.0
161.099044 114.0
161.117684 55.0
163.078323 245.0
164.064323 36.0
165.070952 80.0
166.068022 39.0
167.079472 54.0
168.091452 259.0
169.061931 31.0
169.092511 26.0
170.069661 21.0
170.100331 24.0
171.084271 35.0
171.111171 35.0
172.086451 30.0
172.100581 32.0
173.13151 1321.0
174.06728 17.0
175.11056 34.0
175.15075 61.0
176.063349 23.0
176.119249 14.0
177.093019 68.0
178.079949 65.0
178.960819 17.0
179.056509 22.0
180.081728 38.0
180.097528 19.0
181.101998 29.0
182.016748 16.0
182.089438 29.0
183.120637 270.0
184.109597 23.0
185.099847 21.0
186.103457 24.0
187.116476 35.0
189.072646 40.0
189.088806 44.0
191.137835 41.0
191.145955 54.0
192.082975 19.0
192.981445 37.0
193.982984 24.0
194.082594 21.0
197.100773 16.0
199.120763 36.0
201.128802 492.0
202.067652 40.0
203.139942 181.0
205.095141 23.0
205.161081 27.0
206.091031 17.0
207.032931 82.0
208.01796 49.0
208.03633 26.0
209.02656 15.0
211.991419 17.0
215.082028 16.0
217.119728 15.0
218.105277 17.0
219.153967 673.0
219.180097 60.0

