>compound 
>formula C22H28ClNO2
>parentmass 391.21467782801005
>ionization [M + H3N + H]+
>instrumentation Unknown (LCMS)
>source file:/Users/fanzhoukong/Documents/GitHub/Libgen/data/EAD_PFP/0_unknown_/spectrum.ms
>quality UNKNOWN

>ms2peaks
50.017105 228.0
51.023925 688.0
52.032295 85.0
53.039114 200.0
55.054084 179.0
56.052183 12.0
57.070343 21.0
57.934263 9.0
60.984232 21.0
62.015962 48.0
63.024451 263.0
64.026181 12.0
65.040551 1061.0
66.046181 89.0
67.0539 373.0
68.04986 15.0
68.99619 111.0
69.07188 27.0
71.050399 29.0
71.085909 7.0
72.939679 10.0
74.016198 30.0
75.022508 29.0
76.030498 86.0
77.040048 1414.0
78.045877 219.0
79.055607 1507.0
80.061317 216.0
81.071616 600.0
83.050506 29.0
83.085326 24.0
84.060576 9.0
87.023195 8.0
88.025814 15.0
89.037874 202.0
90.046424 38.0
91.055984 1796.0
92.058943 122.0
93.070233 697.0
94.068993 39.0
94.074703 43.0
95.086462 793.0
96.050832 9.0
97.065412 36.0
97.951492 9.0
102.04704 86.0
103.05494 245.0
104.0648 84.0
105.07255 1137.0
106.068009 10.0
106.077089 60.0
107.087409 539.0
108.056699 29.0
108.066889 18.0
108.094379 17.0
109.101968 265.0
111.000058 16.0
111.045478 11.0
113.003017 24.0
115.056447 1985.0
116.062126 219.0
117.073246 903.0
118.063206 15.0
118.077046 45.0
119.088326 1221.0
120.062065 18.0
121.067785 80.0
121.083955 65.0
121.091495 141.0
121.099045 301.0
122.085275 20.0
123.082024 48.0
123.096154 33.0
123.114634 31.0
125.066874 14.0
125.097554 33.0
126.048204 80.0
126.904213 12.0
127.054343 488.0
128.062273 1815.0
129.070833 1250.0
130.072192 53.0
131.086382 1148.0
132.056092 23.0
132.072982 15.0
133.068962 134.0
133.083642 332.0
134.076591 29.0
135.080051 10.0
135.107381 40.0
135.118781 368.0
136.054121 41.0
137.06037 28.0
139.04585 14.0
139.05509 33.0
140.05033 15.0
140.06539 9.0
141.074689 703.0
142.077099 260.0
143.086599 515.0
144.059658 26.0
144.071428 25.0
144.093768 36.0
145.064358 14.0
145.091488 205.0
145.099758 275.0
146.076098 40.0
147.045018 285.0
147.054518 133.0
147.060458 197.0
147.081828 144.0
148.052887 58.0
148.083877 12.0
149.061817 11.0
149.109667 68.0
149.120417 192.0
149.134777 377.0
150.058567 12.0
150.065767 186.0
151.068276 79.0
151.073086 80.0
152.063246 1007.0
153.072386 1176.0
154.077576 376.0
155.086055 1190.0
156.094145 232.0
157.071115 165.0
157.077265 144.0
157.083405 417.0
157.095685 653.0
158.074554 32.0
158.088104 25.0
158.099194 26.0
158.112724 33.0
159.084884 992.0
159.114544 15.0
160.089764 52.0
161.075424 170.0
161.084114 267.0
161.099044 167.0
162.067833 33.0
162.105253 22.0
163.070813 62.0
163.077063 319.0
164.064343 66.0
164.084403 28.0
165.073462 1087.0
166.078122 275.0
167.085812 753.0
168.095282 185.0
169.101421 762.0
170.108011 45.0
171.089391 32.0
171.118871 852.0
172.053051 10.0
172.091591 23.0
172.108301 19.0
172.12629 12.0
173.05933 27.0
173.07738 130.0
173.089 171.0
173.0993 249.0
173.10961 23.0
174.07116 11.0
174.10606 39.0
175.07816 60.0
175.08334 133.0
175.0989 61.0
175.11317 76.0
176.063359 74.0
177.078699 15.0
177.091729 129.0
178.079959 560.0
179.087969 600.0
180.093568 116.0
181.095408 14.0
181.101998 611.0
182.080188 25.0
182.097368 26.0
182.107948 103.0
183.083527 21.0
183.107397 174.0
183.117997 533.0
184.104287 27.0
184.116227 19.0
185.061207 20.0
185.083847 121.0
185.099857 247.0
185.125167 19.0
186.143557 417.0
187.076286 171.0
187.095046 180.0
187.103096 102.0
187.111136 57.0
188.065086 13.0
188.121506 21.0
189.076676 152.0
189.094206 45.0
190.077505 81.0
191.090445 267.0
192.096555 180.0
193.102605 424.0
194.071684 12.0
194.096254 13.0
194.104444 40.0
195.081514 9.0
195.103414 126.0
195.117094 397.0
196.089844 31.0
196.106314 22.0
196.121404 19.0
197.117283 135.0
197.132413 712.0
198.106033 33.0
199.138733 35.0
199.152553 2590.0
200.121443 31.0
200.136693 12.0
200.157473 18.0
201.094072 339.0
201.114912 17.0
202.080202 85.0
203.086902 23.0
203.106442 169.0
203.127382 28.0
203.950561 9.0
204.093291 34.0
205.089541 17.0
205.104981 172.0
206.113521 90.0
207.094951 22.0
207.121751 333.0
208.03775 12.0
208.08862 14.0
208.11688 15.0
208.12819 17.0
209.09315 21.0
209.12713 163.0
209.12857 222.0
210.10009 17.0
210.13133 22.0
211.116569 213.0
211.135079 95.0
212.124099 29.0
212.154069 9.0
213.102569 183.0
213.126869 42.0
214.137739 28.0
215.105018 215.0
216.075918 9.0
216.090308 22.0
216.111918 12.0
217.160148 701.0
218.079247 8.0
218.102397 10.0
218.112527 20.0
219.116277 85.0
220.101997 21.0
220.128157 51.0
221.135077 507.0
222.103436 13.0
222.141376 16.0
223.113386 18.0
223.135336 35.0
223.151436 243.0
224.128576 28.0
224.149106 18.0
224.160856 15.0
225.116675 123.0
225.129895 254.0
225.143115 319.0
225.168115 71.0
226.121665 11.0
226.140835 63.0
227.112665 48.0
227.134815 72.0
227.142185 130.0
228.153175 74.0
229.102634 7.0
229.124884 32.0
229.161944 24.0
231.104284 20.0
231.120654 67.0
231.145984 9.0
233.132573 161.0
234.104333 14.0
234.141793 18.0
235.120153 85.0
235.138173 372.0
236.156242 18.0
237.128242 165.0
238.132462 21.0
238.153612 15.0
238.171762 23.0
239.116081 71.0
239.131211 589.0
239.146361 421.0
241.124381 81.0
241.142641 58.0
242.138551 14.0
243.13956 38.0
243.15483 22.0
243.17317 25.0
244.12581 16.0
246.971799 136.0
247.155049 19.0
248.123159 18.0
249.133359 30.0
249.150359 274.0
249.164279 1125.0
250.170398 12.0
251.145948 68.0
251.161488 146.0
251.173908 70.0
252.115618 19.0
253.129237 597.0
254.165187 21.0
255.139097 119.0
255.159437 58.0
256.150927 46.0
257.141186 20.0
257.158456 109.0
258.130236 10.0
259.160596 345.0
261.132455 14.0
262.138655 18.0
263.151535 26.0
263.164255 11.0
264.980634 39.0
265.125744 15.0
265.160844 17.0
266.165174 120.0
267.169783 5231.0
268.182723 37.0
269.155773 38.0
269.167033 40.0
269.179883 25.0
270.159583 10.0
271.171702 167.0
272.180852 25.0
273.188672 14.0
275.167611 11.0
277.161841 1805.0
279.13544 62.0
280.14619 18.0
281.15714 177.0
283.131719 14.0
283.171269 23.0
284.176089 71.0
285.189278 633.0
287.204508 17.0
288.000278 67.0
290.960397 18.0
293.156866 23.0
294.162416 103.0
294.192666 38.0
295.176426 7025.0
296.180365 12.0
297.150575 46.0
299.158414 31.0
299.170264 110.0
300.175874 66.0
301.181494 9.0
303.197753 27.0
306.006832 20.0
308.973452 51.0
309.187012 43.0
311.167631 14.0
312.175901 150.0
313.1806 1457.0
315.16177 11.0
318.967919 22.0
327.199576 123.0
329.181906 14.0
330.186856 19.0
331.195155 55.0
331.988975 52.0
337.178214 148.0
345.212271 47.0
349.99562 13.0
354.182939 12.0
355.192098 891.0
364.253306 29.0
371.970504 11.0
372.195384 30.0
373.205273 5907.0
374.207073 24.0
390.234509 12.0
391.179448 38.0
391.191078 41.0
391.212378 571.0

