>compound 
>formula C9H10O3
>parentmass 167.07027518101
>ionization [M + H]+
>instrumentation Unknown (LCMS)
>source file:/Users/fanzhoukong/Documents/GitHub/Libgen/data/EAD_PFP/0_unknown_/spectrum.ms
>quality UNKNOWN

>ms2peaks
50.015834 409.0
51.024043 1604.0
52.031002 1123.0
53.039251 580.0
54.047799 81.0
55.018608 660.0
56.067727 18.0
56.966196 24.0
57.069756 23.0
59.046213 27.0
59.050733 26.0
60.053902 38.0
61.030301 53.0
62.01381 42.0
63.023849 289.0
64.031068 132.0
64.825237 28.0
65.042316 1883.0
66.047955 86.0
67.054094 1141.0
68.024193 12.0
68.058133 13.0
68.997202 348.0
73.048697 26.0
73.055397 46.0
74.014726 18.0
74.069516 25.0
75.024434 86.0
76.029863 57.0
77.044582 1558.0
78.046971 1529.0
79.01927 66.0
79.03843 217.0
79.05149 190.0
80.026508 941.0
81.033937 776.0
82.044136 215.0
83.052545 30.0
84.960482 721.0
88.032519 11.0
89.039998 351.0
90.044846 165.0
90.757376 25.0
91.058135 3242.0
92.027274 89.0
92.752303 24.0
93.070523 1073.0
94.042692 97.0
95.05428 2079.0
96.053049 29.0
97.063788 36.0
101.042433 12.0
103.047311 37.0
105.036728 1204.0
106.041097 552.0
107.049236 255.0
108.020385 1732.0
109.028654 219.0
110.040582 3755.0
111.021051 49.0
112.997119 28.0
114.035628 19.0
115.050506 54.0
115.054706 77.0
116.048775 22.0
117.058774 53.0
117.071494 25.0
118.035903 31.0
118.043353 77.0
119.040602 16.0
119.055562 84.0
119.082292 46.0
120.05815 48.0
120.06781 23.0
121.066009 4298.0
121.074629 3319.0
122.019638 56.0
123.044377 2959.0
124.051576 142.0
124.550705 17.0
125.061784 1224.0
126.047493 16.0
127.053642 25.0
128.056021 29.0
129.06567 25.0
130.059189 35.0
131.063227 28.0
131.082307 33.0
131.968736 28.0
132.077906 18.0
133.011725 21.0
133.028685 1016.0
134.031644 40.0
134.038444 442.0
135.044043 54.0
135.052013 79.0
137.02296 117.0
139.041658 13.0
139.067078 21.0
141.053025 24.0
141.064655 37.0
141.070485 45.0
141.932804 16.0
142.072894 23.0
144.078932 15.0
145.047121 12.0
145.968819 33.0
147.043088 70.0
148.052147 125.0
149.061076 2062.0
150.036235 15.0
150.049425 29.0
150.538214 39.0
151.045853 4954.0
152.050422 58.0
152.061302 134.0
152.770011 20.0
153.070441 34.0
154.06954 59.0
155.048709 13.0
156.068927 24.0
157.076516 28.0
158.089805 18.0
162.998769 13.0
163.053789 16.0
164.059818 24.0
165.047537 18.0
165.068947 147.0
166.064725 227.0
167.071124 1783.0

