>compound 
>formula C26H44O9
>parentmass 501.30581399425006
>ionization [M + H]+
>instrumentation Unknown (LCMS)
>source file:/Users/fanzhoukong/Documents/GitHub/Libgen/data/EAD_PFP/0_unknown_/spectrum.ms
>quality UNKNOWN

>ms2peaks
50.014668 91.0
51.022191 295.0
53.038108 995.0
54.043781 77.0
55.018205 32.0
55.035645 1259.0
55.051635 651.0
56.055598 28.0
56.826901 23.0
57.033122 241.0
57.036082 445.0
57.044222 397.0
57.053842 606.0
58.042225 23.0
59.047378 240.0
61.026925 12.0
65.038099 1083.0
66.046112 144.0
67.053845 2926.0
68.023969 73.0
69.034412 570.0
69.045812 3206.0
70.040016 51.0
70.811978 21.0
71.048769 2846.0
73.032626 54.0
73.066116 153.0
74.033959 24.0
75.013262 33.0
76.030596 32.0
77.037589 2134.0
78.046003 134.0
79.054886 3949.0
80.06148 67.0
81.056803 2577.0
81.064743 1138.0
82.040526 634.0
83.04983 4887.0
84.019493 43.0
84.051823 35.0
85.041756 268.0
85.050786 575.0
85.062537 409.0
86.03658 32.0
87.041753 47.0
87.049063 95.0
87.077403 87.0
89.04096 49.0
90.049533 30.0
91.055387 2645.0
92.06306 69.0
93.070604 3406.0
94.042777 157.0
94.078887 21.0
95.0563 895.0
95.06681 3874.0
95.084951 31.0
96.056044 272.0
97.063917 3289.0
98.036311 143.0
99.078864 1318.0
100.050487 33.0
101.038671 26.0
101.061321 197.0
102.036664 16.0
102.052494 28.0
103.052478 333.0
104.060341 93.0
105.069084 2442.0
106.076648 53.0
107.050491 41.0
107.070761 727.0
107.082931 776.0
108.057304 78.0
108.064425 46.0
109.063708 2282.0
109.074958 1073.0
109.59224 15.0
110.037781 39.0
110.072721 87.0
111.048185 4629.0
111.055405 1441.0
111.783377 24.0
112.051798 255.0
113.063051 629.0
113.072421 755.0
113.078672 412.0
114.013985 31.0
114.032815 65.0
115.052948 908.0
115.073958 3761.0
116.061792 292.0
117.069745 1310.0
118.067148 38.0
119.074122 66.0
119.084812 2375.0
120.060685 33.0
120.088595 22.0
121.066419 1084.0
121.081509 2480.0
121.096599 168.0
122.040622 33.0
122.075252 99.0
123.043725 122.0
123.051325 162.0
123.066545 592.0
123.080675 349.0
124.054199 122.0
124.277979 15.0
125.045812 32.0
125.062242 1985.0
125.071002 1075.0
125.094012 89.0
125.839075 15.0
126.042465 32.0
126.054566 20.0
126.064456 18.0
127.038659 76.0
127.050799 370.0
127.058529 326.0
127.069569 365.0
128.062052 820.0
128.475884 35.0
129.062836 1281.0
130.078689 142.0
130.757771 22.0
131.087313 2475.0
132.050296 56.0
132.061566 65.0
132.071696 46.0
132.084066 35.0
132.621648 18.0
133.068779 3334.0
134.061693 27.0
134.074153 98.0
135.081046 2145.0
136.057409 22.0
136.077979 35.0
136.09055 80.0
137.078573 44.0
137.088903 972.0
137.094643 3665.0
138.067886 35.0
139.03648 60.0
139.0596 249.0
139.06999 350.0
139.08038 1016.0
139.1012 714.0
139.11389 125.0
140.056023 29.0
141.062966 1539.0
142.07235 117.0
143.081833 1479.0
144.056077 134.0
144.073717 55.0
144.093707 47.0
145.06196 158.0
145.08909 2805.0
146.061833 34.0
146.074873 169.0
147.084177 4592.0
147.740719 33.0
148.08624 126.0
149.097694 6822.0
149.797066 24.0
150.081347 33.0
150.102977 61.0
151.07431 923.0
151.08995 1014.0
151.10922 155.0
152.059634 106.0
153.055457 64.0
153.076047 1320.0
153.084517 1525.0
154.0618 24.0
154.07274 111.0
154.088551 42.0
155.105614 5183.0
156.091747 125.0
156.111327 40.0
157.049091 120.0
157.084691 1065.0
157.098211 931.0
158.056154 41.0
158.074624 208.0
158.098024 32.0
159.083727 2946.0
160.051431 34.0
160.070021 49.0
160.094811 61.0
161.084214 2791.0
161.090434 3146.0
162.069198 70.0
162.077928 57.0
162.107848 31.0
162.396109 18.0
163.090951 7620.0
164.085794 31.0
165.091228 3717.0
166.060581 29.0
166.075731 84.0
166.087101 36.0
167.107485 8177.0
168.072578 53.0
168.097988 67.0
168.368619 22.0
169.095221 121.0
169.099041 617.0
169.107971 838.0
170.074985 29.0
170.100525 30.0
170.110745 77.0
170.519856 23.0
171.079328 2020.0
171.088308 950.0
172.093082 96.0
173.098215 4090.0
174.068798 34.0
174.089478 53.0
174.104988 59.0
175.077092 3663.0
176.081795 82.0
176.256036 19.0
176.503207 22.0
176.617777 13.0
177.094579 4321.0
178.064522 66.0
178.084132 51.0
178.097212 63.0
179.062025 39.0
179.079065 10090.0
180.080709 65.0
180.089909 62.0
180.108329 23.0
181.100962 913.0
181.107552 5087.0
182.072545 29.0
182.095006 22.0
182.106916 42.0
183.109039 1572.0
184.085972 26.0
184.117872 33.0
185.121496 5593.0
186.070399 28.0
186.102459 76.0
186.123829 27.0
187.086012 958.0
187.110123 245.0
188.054686 19.0
188.081556 73.0
188.121856 30.0
189.095899 3239.0
190.094073 25.0
191.107066 5112.0
192.075219 25.0
192.098289 29.0
192.120019 28.0
192.455561 23.0
193.090743 5749.0
194.093936 65.0
194.103486 63.0
195.10519 3410.0
196.110853 77.0
196.117703 72.0
197.092956 322.0
197.108096 1900.0
198.10095 53.0
198.12578 31.0
199.094943 65.0
199.128123 503.0
199.137793 939.0
200.108037 31.0
201.114 1468.0
201.11955 1777.0
202.077893 17.0
202.104353 20.0
202.382984 28.0
203.074817 1169.0
203.083197 921.0
203.122287 123.0
204.07839 34.0
205.091443 2283.0
206.084517 22.0
206.094357 31.0
207.10394 3922.0
208.090564 16.0
208.115984 23.0
208.417125 30.0
209.123437 10130.0
209.90899 24.0
210.10916 68.0
210.120531 27.0
211.105744 857.0
211.147024 118.0
212.117547 78.0
212.183168 17.0
213.113141 139.0
213.126011 1690.0
214.093884 24.0
214.121124 142.0
215.108487 58.0
215.125727 137.0
215.144408 537.0
216.090911 20.0
217.090034 1822.0
217.108804 220.0
218.110258 36.0
218.136298 31.0
219.118361 1596.0
221.083298 2334.0
223.095025 1043.0
223.099425 4937.0
225.112951 1124.0
226.109105 19.0
226.131205 22.0
227.136988 8283.0
228.112452 29.0
228.137612 34.0
228.512133 19.0
229.128575 2072.0
229.147845 279.0
230.138038 21.0
231.137782 2111.0
232.120315 23.0
232.148665 23.0
233.131839 56.0
233.155779 340.0
235.099885 2437.0
237.116952 280.0
237.124512 871.0
238.157446 20.0
238.305616 27.0
239.095679 5409.0
241.109996 469.0
241.140426 97.0
242.125669 16.0
243.140412 1002.0
244.134316 27.0
244.157276 19.0
245.154799 4576.0
246.125133 44.0
246.151263 25.0
247.134356 2973.0
249.149713 1138.0
250.149626 20.0
250.901639 22.0
251.12358 16.0
251.16859 60.0
253.111466 6838.0
254.12866 23.0
255.140043 2852.0
256.122096 18.0
256.159727 18.0
256.172277 21.0
257.15158 91.0
257.16575 132.0
257.17673 295.0
257.22858 31.0
259.130017 23.0
260.1703 18.0
261.147724 1080.0
262.161857 22.0
262.647449 21.0
263.16845 1745.0
264.232694 22.0
264.270904 27.0
265.149137 11316.0
266.10868 19.0
266.12787 27.0
267.162814 744.0
267.523235 43.0
268.135657 18.0
269.150431 40.0
269.176131 26.0
271.117937 171.0
271.124407 321.0
272.278951 41.0
273.150904 6397.0
274.149168 24.0
275.163851 17.0
279.139885 59.0
279.161155 1065.0
281.163231 27.0
281.176381 143.0
281.457332 26.0
283.155978 203.0
283.170808 114.0
285.177255 48.0
285.197125 23.0
288.653587 32.0
289.151448 34.0
290.151792 61.0
290.190152 55.0
291.163875 18097.0
292.134219 25.0
292.375369 28.0
293.138002 24.0
293.188332 53.0
294.047795 28.0
295.149119 14.0
297.168776 23.0
297.520127 21.0
299.195333 35.0
301.176059 13.0
301.208349 17.0
307.16259 18.0
308.121363 29.0
308.148893 39.0
308.169523 46.0
308.222833 21.0
309.172936 11072.0
310.15381 21.0
310.523131 18.0
310.918552 16.0
311.136233 20.0
311.194983 16.0
313.15605 25.0
315.205007 33.0
317.178613 28.0
318.158137 28.0
318.878449 33.0
319.17416 75.0
319.19867 223.0
326.080434 20.0
327.186977 6054.0
329.188814 32.0
331.191421 26.0
333.210798 43.0
335.173574 17.0
335.193325 19.0
337.212251 90.0
337.237461 25.0
338.860297 17.0
343.196612 21.0
345.206729 57.0
347.229985 20.0
349.198772 18.0
351.230059 24.0
353.199096 32.0
354.828461 28.0
355.229002 17.0
357.201789 32.0
358.289413 14.0
361.195393 39.0
361.215873 30.0
363.21826 18.0
365.259896 13.0
367.235883 11.0
369.23983 23.0
373.209133 43.0
373.243194 31.0
375.21409 20.0
375.23115 20.0
377.222487 28.0
379.213374 114.0
379.238184 20.0
379.274434 16.0
381.251581 11.0
383.262668 16.0
385.230934 31.0
385.259774 48.0
387.233201 33.0
391.208684 73.0
391.253235 21.0
397.230495 16.0
399.300812 21.0
401.239168 35.0
402.246442 21.0
403.223525 26.0
403.253035 55.0
404.256939 18.0
409.227756 46.0
411.209872 16.0
411.261542 79.0
417.263063 48.0
419.28858 24.0
421.260726 41.0
429.262523 190.0
429.345744 25.0
435.279054 80.0
435.291314 24.0
447.242954 38.0
447.280225 886.0
464.274172 20.0
465.243535 46.0
465.294256 1011.0
466.304879 26.0
482.288183 24.0
483.273997 38.0
483.306317 407.0
483.342937 18.0
501.305028 258.0

