>compound 
>formula C9H10N2O5
>parentmass 227.067273457845
>ionization [M + H]+
>instrumentation Unknown (LCMS)
>source file:/Users/fanzhoukong/Documents/GitHub/Libgen/data/NIST_MONA/0_unknown_/spectrum.ms
>quality UNKNOWN

>ms2peaks
55.0178 0.17
63.0219 0.51
65.0382 1.03
66.033 0.18
68.0481 0.13
74.0231 0.17
78.046 0.1
79.0409 0.32
80.0478 0.32
81.0333 0.17
81.0732 0.07
84.9584 0.17
90.0344 0.98
92.0497 0.26
93.0346 0.21
94.0417 0.14
102.0319 0.18
104.05 0.21
105.056 0.2
106.0406 1.28
107.057 0.17
108.0456 0.28
117.0458 3.35
117.0889 0.15
117.1058 0.09
118.0516 0.57
118.1873 0.11
120.0218 0.11
120.0451 0.47
121.0408 0.07
122.0363 0.42
133.0525 2.6
133.099 0.11
135.0649 0.66
136.0395 1.35
145.0397 0.24
146.0248 0.07
146.0483 0.43
162.034 0.14
163.0486 0.46
164.0358 1.72
168.0296 6.38
168.1015 0.15
168.1198 0.09
168.2552 0.08
180.8371 0.07
180.9371 0.12
181.0611 100.0
181.5415 0.19
181.5989 0.2
181.6474 0.15
181.6744 0.07
181.7028 0.15
181.7347 0.1
181.7772 0.07
181.8358 0.09
181.9691 0.12
182.0213 0.07
182.0909 0.14
182.23 0.07
182.2855 0.08
183.3047 0.1
191.038 0.09
192.0281 0.26
209.0599 0.23
210.0397 11.61
210.1038 0.53
210.1432 0.23
210.2437 0.07
210.5059 0.08
210.5621 0.09
227.066 16.65
227.1775 0.21
227.2219 0.11
227.2559 0.08
227.303 0.12
227.3606 0.07
227.4652 0.16
227.5011 0.08
227.5464 0.11
227.7388 0.07
228.3129 0.07

