>compound 
>formula C11H12O5
>parentmass 225.0757
>ionization [M + H]+
>instrumentation Unknown (LCMS)
>source file:/Users/fanzhoukong/Documents/GitHub/Libgen/data/NIST_MONA/0_unknown_/spectrum.ms
>quality UNKNOWN

>ms2peaks
67.0541 0.101474
71.999 0.124536
75.0227 0.113005
77.038 0.931713
78.0427 0.216785
79.054 0.712622
81.0696 0.152211
83.0813 0.133761
89.0101 0.149904
89.0387 0.124536
91.0539 23.135998
92.0577 0.991675
93.0342 0.315952
93.0697 1.012431
94.0739 0.239847
95.0486 2.061761
95.0603 0.163742
96.0327 0.147598
96.0525 0.290584
97.1008 0.113005
99.0096 0.117617
101.0378 0.161435
103.0537 2.772076
105.0297 0.138373
105.0457 0.129148
105.0707 0.209866
106.0423 0.115311
107.0486 0.468163
115.0387 0.142986
118.0418 0.507368
119.0491 30.446715
120.0528 2.209359
121.0294 0.159129
121.0641 0.885588
121.0858 0.154517
122.0679 0.161435
123.0429 3.191808
123.9877 0.154517
124.0487 0.405895
126.0685 0.108392
127.0275 0.119923
127.0422 0.119923
129.0338 0.212172
131.0005 0.115311
131.0486 0.232928
132.0216 0.221397
133.0296 0.315952
134.0322 0.147598
140.0469 0.27444
145.0257 0.136067
146.0352 0.458938
147.0436 30.977145
148.0471 3.06266
149.0225 1.23844
149.0587 0.468163
151.0294 0.131455
151.0757 0.115311
155.0699 1.941837
156.0729 0.142986
157.0396 0.952469
159.0187 0.133761
159.0326 0.12223
160.015 0.145292
161.0204 0.228316
162.0303 0.265215
163.0384 0.65266
163.0744 0.133761
164.0462 2.541454
166.0265 0.101474
166.0598 0.140679
167.0713 0.179885
168.0509 0.10378
169.0014 0.101474
173.0227 0.168354
174.0296 0.899426
175.0384 100.0
176.042 10.036669
177.017 0.993981
179.0701 4.266507
180.0731 0.27444
181.0482 0.258297
181.085 0.267522
183.0653 3.224095
184.0679 0.237541
191.0326 0.136067
192.0411 45.204216
193.0465 3.394756
194.0446 0.327483
195.0533 0.145292
207.0648 81.05671
208.0682 8.366966
209.0435 0.993981
209.069 0.929407
224.0679 2.248564

