>compound 
>formula C20H26O6
>parentmass 363.1802195554001
>ionization [M + H]+
>instrumentation Unknown (LCMS)
>source file:/Users/fanzhoukong/Documents/GitHub/Libgen/data/EAD_PFP/0_unknown_/spectrum.ms
>quality UNKNOWN

>ms2peaks
78.048435 11.0
105.069786 55.0
114.041876 52.0
115.056786 4485.0
116.063536 594.0
117.070426 3333.0
119.063056 469.0
119.074806 1097.0
119.083366 1636.0
121.062786 177.0
121.067106 579.0
121.076806 555.0
121.086506 272.0
123.042236 80.0
123.069396 73.0
123.790976 62.0
125.061826 87.0
126.047546 195.0
127.054796 627.0
128.064946 2219.0
129.069086 844.0
131.058826 81.0
131.082386 235.0
133.103356 59.0
135.046427 66.0
137.075807 67.0
139.074137 129.0
141.070627 2465.0
142.076527 908.0
143.086017 6203.0
144.059107 97.0
144.083797 165.0
145.087397 2871.0
145.089747 5712.0
145.100367 7227.0
146.075517 173.0
146.095667 123.0
147.040887 1241.0
147.059877 13049.0
148.059467 66.0
148.089267 155.0
149.069637 3793.0
150.046007 212.0
151.076167 3368.0
151.736717 43.0
152.065117 4308.0
153.074267 6706.0
154.077037 2693.0
155.086737 10037.0
155.804907 47.0
156.094837 2708.0
157.092707 2891.0
157.096377 8004.0
158.090047 232.0
158.102367 515.0
159.080667 128.0
159.097967 7944.0
160.086787 585.0
161.067447 5497.0
162.104757 526.0
163.076577 5328.0
164.062597 382.0
165.080527 17427.0
166.080157 2571.0
167.087847 8525.0
168.088457 166.0
168.094807 1346.0
169.098397 8805.0
170.070487 86.0
170.084537 298.0
170.099877 169.0
170.108817 712.0
171.106867 8197.0
172.094997 169.0
172.116847 141.0
173.094977 2157.0
173.111727 2418.0
174.091387 146.0
174.104317 235.0
175.078998 4215.0
176.069418 192.0
177.091298 6119.0
178.079518 2735.0
179.088858 5167.0
180.094478 997.0
181.102898 9827.0
182.086368 203.0
182.110178 605.0
183.095058 180.0
183.108318 9063.0
184.099878 422.0
184.123798 349.0
185.076788 150.0
185.088778 1113.0
185.096778 3257.0
185.132778 220.0
186.088358 77.0
186.099048 148.0
187.079898 1732.0
187.089288 3069.0
187.108058 248.0
188.068718 48.0
188.082158 99.0
189.092478 4987.0
190.081168 247.0
191.099538 3013.0
192.094828 1207.0
193.100868 6287.0
194.104068 519.0
194.113628 584.0
195.097568 189.0
195.115368 5090.0
196.107318 539.0
197.103168 3991.0
198.069828 93.0
198.104298 192.0
198.130498 52.0
199.081698 671.0
199.092768 4227.0
200.121098 87.0
201.095128 3148.0
202.079868 379.0
203.106098 1976.0
204.097158 492.0
204.105548 106.0
205.103248 1561.0
206.110408 980.0
207.117198 3741.0
208.096778 146.0
208.125058 379.0
209.099918 88.0
209.115498 1702.0
209.125418 3743.0
210.104038 123.0
210.111148 174.0
210.138128 118.0
211.124828 3861.0
212.102398 93.0
212.126658 283.0
213.096538 4392.0
215.103299 2205.0
216.095799 208.0
216.110189 144.0
217.122339 2976.0
218.099239 145.0
218.109349 427.0
219.088459 268.0
219.114569 1208.0
220.123539 1263.0
221.095479 389.0
221.126079 3251.0
222.110469 203.0
222.125069 153.0
222.136739 392.0
223.148249 6664.0
224.084329 45.0
224.115139 133.0
225.087029 63.0
225.114949 982.0
225.144359 2290.0
226.094899 93.0
226.131739 76.0
227.100629 756.0
227.105049 1784.0
229.094999 322.0
229.109829 1115.0
230.114789 412.0
231.077249 43.0
231.101079 220.0
231.126379 744.0
232.098439 79.0
233.112909 233.0
233.126369 503.0
233.130849 975.0
234.102609 251.0
235.149969 9141.0
236.107869 62.0
236.121419 186.0
236.147009 134.0
237.141609 1442.0
237.158209 2663.0
238.105049 103.0
238.129239 141.0
239.117399 3395.0
239.143149 108.0
240.100019 45.0
240.134929 76.0
241.115079 604.0
241.133329 854.0
241.142449 961.0
243.102719 717.0
243.118009 653.0
243.127159 361.0
244.091959 35.0
245.106209 391.0
245.130749 1282.0
246.094889 68.0
246.113339 118.0
246.127179 95.0
247.105579 110.0
247.147159 509.0
248.126079 595.0
249.088359 160.0
249.113109 573.0
249.131649 618.0
250.136159 133.0
251.144249 3956.0
252.118589 96.0
252.132579 59.0
253.160259 9741.0
254.133809 55.0
255.132699 461.0
255.142079 1042.0
257.07037 173.0
257.08767 467.0
257.10336 200.0
257.12222 186.0
257.13635 186.0
257.15206 287.0
258.10177 88.0
258.13641 43.0
259.11001 309.0
259.11947 260.0
260.33511 44.0
261.12917 475.0
263.14666 6394.0
265.16393 1209.0
266.13152 119.0
267.11364 440.0
267.13928 1097.0
268.09921 55.0
268.14092 61.0
269.15569 8040.0
271.16839 2543.0
273.11898 399.0
273.13839 276.0
276.11248 113.0
277.12917 76.0
279.14196 2088.0
280.12649 43.0
281.15872 13273.0
283.16793 536.0
284.09844 46.0
285.10653 65.0
285.11315 106.0
285.1545 122.0
287.15634 69.0
290.1455 50.0
291.14086 2260.0
295.12258 41.0
295.13604 76.0
296.13656 51.0
297.157341 14300.0
299.168601 6586.0
309.152611 9689.0
313.133871 48.0
315.161861 2473.0
317.180691 104.0
327.162471 3135.0
345.172392 11079.0
363.181152 982.0

