>compound 
>formula C32H46O10
>parentmass 591.3163786782801
>ionization [M + H]+
>instrumentation Unknown (LCMS)
>source file:/Users/fanzhoukong/Documents/GitHub/Libgen/data/EAD_PFP/0_unknown_/spectrum.ms
>quality UNKNOWN

>ms2peaks
123.081433 22.0
127.053763 147.0
128.055044 205.0
128.061674 666.0
129.070254 227.0
130.069364 189.0
131.081334 119.0
133.100025 269.0
137.095366 169.0
139.053396 190.0
141.063676 95.0
141.069496 470.0
142.076577 262.0
143.082537 92.0
144.089707 162.0
145.098037 211.0
147.307138 22.0
163.054051 69.0
164.062601 124.0
165.070462 718.0
167.080252 263.0
168.078282 212.0
169.079292 236.0
170.111373 93.0
171.101743 298.0
172.102683 70.0
173.110433 221.0
175.113994 1476.0
176.062894 87.0
178.074274 627.0
179.084914 483.0
180.087875 88.0
181.093635 473.0
182.100885 52.0
183.116235 304.0
185.094086 126.0
186.116396 66.0
187.105326 158.0
189.078967 387.0
191.068347 152.0
191.090007 273.0
192.983767 69.0
193.098097 240.0
194.097198 219.0
195.115308 188.0
196.125088 76.0
197.116868 208.0
198.101488 77.0
199.113439 206.0
201.124219 85.0
202.075619 240.0
203.10742 3478.0
204.08029 123.0
205.11159 105.0
207.11853 140.0
208.117911 125.0
209.133841 171.0
211.129001 91.0
213.122192 30.0
213.126482 306.0
214.127322 48.0
215.119002 299.0
216.094252 93.0
217.104923 125.0
218.091913 45.0
219.099963 215.0
220.114723 86.0
221.134713 191.0
223.110094 46.0
223.142294 203.0
225.128054 116.0
227.106405 115.0
227.143315 122.0
229.117115 229.0
231.132225 63.0
231.133715 153.0
233.115776 275.0
236.119777 115.0
237.126377 94.0
239.139977 125.0
241.130138 75.0
243.140758 149.0
245.142858 168.0
247.126999 186.0
249.153129 103.0
251.14253 229.0
252.13241 44.0
253.03543 133.0
254.04307 309.0
255.135661 167.0
256.144361 65.0
257.148751 237.0
259.135051 122.0
261.154312 193.0
263.138532 105.0
265.186083 69.0
267.179093 101.0
269.163523 297.0
271.164964 100.0
273.143054 23.0
275.165695 226.0
277.155045 183.0
280.060686 96.0
281.058306 140.0
283.164416 56.0
285.179097 218.0
286.071457 213.0
287.159407 79.0
289.139938 99.0
291.205828 140.0
293.190149 148.0
295.164389 103.0
297.155389 23.0
303.190701 54.0
305.188011 51.0
307.171262 70.0
309.191952 126.0
311.193322 46.0
311.196772 1025.0
313.178643 36.0
314.197103 31.0
315.198083 137.0
322.068445 110.0
325.180625 116.0
327.195826 177.0
329.210136 561.0
333.196467 41.0
337.217618 164.0
339.186708 52.0
347.20981 97.0
353.204471 216.0
353.219211 172.0
355.225162 240.0
357.203492 96.0
363.233033 82.0
371.235755 86.0
373.203225 146.0
381.197757 63.0
385.253728 44.0
387.242528 58.0
389.238379 231.0
391.227759 112.0
401.197611 210.0
402.171432 24.0
403.258562 291.0
405.236062 61.0
407.255933 43.0
409.276903 24.0
413.242174 205.0
417.214585 24.0
417.238605 90.0
421.272326 104.0
425.228506 108.0
429.272177 24.0
431.253378 1532.0
433.273818 90.0
435.243759 77.0
435.253989 211.0
447.205071 24.0
449.258322 960.0
449.274952 2356.0
453.262142 47.0
459.252924 75.0
467.275665 1892.0
467.288355 2010.0
477.262117 407.0
481.216638 53.0
485.278109 1231.0
486.303709 66.0
495.270971 1343.0
509.180484 70.0
511.198465 24.0
513.282595 1003.0
513.291445 1566.0
530.286389 90.0
531.295239 642.0
531.306529 341.0
537.33668 83.0
571.336687 24.0
573.295918 42.0
591.258381 508.0
591.344141 1208.0

