>compound 
>formula C15H22O3
>parentmass 251.16417556777
>ionization [M + H]+
>instrumentation Unknown (LCMS)
>source file:/Users/fanzhoukong/Documents/GitHub/Libgen/data/EAD_PFP/0_unknown_/spectrum.ms
>quality UNKNOWN

>ms2peaks
50.014437 247.0
51.022636 654.0
52.031704 109.0
53.039953 195.0
54.046362 19.0
55.053501 450.0
56.050859 48.0
57.032028 74.0
59.048496 947.0
60.982893 73.0
62.016162 87.0
63.021551 334.0
64.02483 40.0
65.041568 1076.0
66.045617 84.0
67.054146 595.0
69.037133 123.0
69.070513 69.0
71.050671 27.0
73.031188 23.0
74.013957 29.0
75.016026 55.0
76.034225 80.0
77.039514 1348.0
78.041872 213.0
79.054201 887.0
80.05553 85.0
81.071089 1313.0
83.048196 133.0
83.082126 89.0
85.031954 37.0
87.024511 25.0
88.02898 15.0
89.037369 171.0
90.047777 78.0
91.060146 1237.0
92.058435 256.0
93.067844 558.0
94.048542 60.0
95.085011 1184.0
96.06185 27.0
97.083259 76.0
98.013058 41.0
98.985296 136.0
100.113225 15.0
102.049523 85.0
103.054461 326.0
104.06532 71.0
105.070069 1168.0
106.066528 97.0
107.086946 805.0
108.047075 20.0
109.066724 485.0
110.059303 23.0
111.080121 74.0
113.001519 48.0
115.049697 129.0
115.055996 1082.0
116.061685 210.0
117.069624 686.0
118.072343 42.0
119.065442 549.0
119.085752 598.0
120.07236 47.0
121.068429 199.0
121.071659 528.0
122.070778 23.0
123.079427 136.0
124.051855 24.0
125.062064 116.0
125.097124 47.0
127.053922 270.0
128.06185 855.0
129.070429 433.0
130.074008 176.0
131.087107 962.0
132.069205 36.0
133.085494 343.0
134.093203 27.0
135.085362 526.0
136.054871 21.0
137.059979 335.0
139.081277 170.0
141.067334 204.0
142.076733 156.0
143.079202 219.0
144.059301 38.0
145.080509 949.0
145.094669 431.0
146.069808 29.0
147.102857 238.0
147.115927 218.0
149.025574 147.0
149.135614 97.0
151.073942 446.0
152.062891 297.0
153.070829 170.0
154.074788 113.0
155.088137 331.0
156.093806 146.0
157.102714 250.0
158.076673 77.0
158.108703 27.0
159.088262 415.0
159.103092 660.0
159.119162 229.0
160.089431 52.0
160.101821 60.0
161.134769 761.0
162.121148 23.0
162.538018 28.0
163.076747 3625.0
163.084257 3511.0
164.061516 60.0
165.069375 170.0
165.081965 155.0
166.072743 30.0
167.081692 116.0
168.081001 31.0
168.088611 52.0
169.08965 73.0
169.09984 323.0
170.071928 26.0
170.101318 39.0
171.082687 35.0
171.107047 68.0
171.114717 186.0
172.106716 82.0
172.124706 36.0
173.096425 509.0
173.115755 189.0
175.147872 564.0
177.09014 399.0
178.078359 78.0
179.092937 62.0
180.078846 30.0
180.097246 39.0
180.991005 42.0
181.104355 38.0
182.107674 144.0
183.112432 21.0
184.086731 25.0
185.13425 528.0
186.101869 144.0
187.148407 1791.0
189.124935 283.0
190.085364 20.0
191.107792 235.0
191.117282 150.0
192.97851 33.0
193.12142 138.0
193.16227 34.0
194.093299 22.0
195.105917 28.0
197.130795 474.0
199.108093 46.0
200.117061 61.0
200.9869 30.0
201.12998 30.0
202.077199 44.0
203.082498 39.0
203.142528 478.0
204.149066 15.0
205.160875 382.0
206.088014 24.0
207.032753 77.0
209.08588 21.0
213.122405 39.0
214.134704 21.0
215.147943 2330.0
216.084392 21.0
217.11956 32.0
219.094368 27.0
221.139295 62.0
221.159695 105.0
223.089823 30.0
223.130793 31.0
223.168833 18.0
225.03717 16.0
226.087659 8.0
230.998413 25.0
231.138403 12.0
233.15488 2515.0
234.117689 15.0
248.991041 19.0
251.162958 918.0

