>compound 
>formula C36H52O12
>parentmass 694.3796981108001
>ionization [M + H3N + H]+
>instrumentation Unknown (LCMS)
>source file:/Users/fanzhoukong/Documents/GitHub/Libgen/data/EAD_PFP/0_unknown_/spectrum.ms
>quality UNKNOWN

>ms2peaks
50.017096 210.0
51.025291 838.0
52.030825 158.0
53.04117 488.0
54.047554 35.0
55.057579 696.0
56.054213 51.0
57.036108 28.0
57.073848 47.0
57.940013 28.0
58.069082 23.0
60.999237 48.0
62.019491 56.0
63.026436 418.0
64.03365 64.0
65.041735 1261.0
66.040979 38.0
66.047349 98.0
67.059064 918.0
68.058268 30.0
68.998133 151.0
69.035563 38.0
69.070573 79.0
71.027562 21.0
74.016416 102.0
75.023561 63.0
76.032395 77.0
77.04194 1566.0
78.046894 247.0
79.057489 1004.0
80.051793 84.0
80.060563 68.0
81.047028 129.0
81.070838 217.0
82.073252 57.0
83.051467 88.0
85.030706 62.0
85.057806 36.0
87.028676 39.0
88.03039 18.0
89.040615 124.0
90.047299 71.0
90.762625 16.0
91.056844 2146.0
92.057908 198.0
93.072963 352.0
94.060318 60.0
95.050022 158.0
95.064352 199.0
97.035321 35.0
97.068141 128.0
99.997865 30.0
101.03302 57.0
102.047774 143.0
103.058649 349.0
104.061513 185.0
105.074248 857.0
106.064653 56.0
107.055657 125.0
107.065787 168.0
108.059402 82.0
109.078066 180.0
109.097506 106.0
110.081981 37.0
111.082235 417.0
113.042155 138.0
113.062985 214.0
114.047369 23.0
115.055984 1083.0
116.057428 54.0
116.065868 145.0
117.071693 745.0
118.071208 60.0
119.088872 1153.0
120.085137 38.0
121.070461 135.0
121.078001 128.0
121.087701 257.0
122.060886 48.0
122.077126 83.0
123.08361 533.0
125.06187 28.0
126.049764 66.0
127.059219 386.0
128.064923 1213.0
129.071268 407.0
130.074853 130.0
131.052027 40.0
131.071087 147.0
131.087917 220.0
132.062132 156.0
133.090806 164.0
133.104356 224.0
134.073561 25.0
135.083835 586.0
136.08762 45.0
137.097405 193.0
138.105189 20.0
139.076204 559.0
140.047149 57.0
140.065698 25.0
141.071513 336.0
142.078568 193.0
143.088042 263.0
144.077577 114.0
144.096377 62.0
145.068161 94.0
145.078781 258.0
145.103561 77.0
146.073966 88.0
146.091726 79.0
147.08683 325.0
147.968486 31.0
148.094835 48.0
149.09911 319.0
150.051574 41.0
151.074489 390.0
152.067053 348.0
153.072558 223.0
153.078618 305.0
154.072873 71.0
154.078943 157.0
155.089847 269.0
156.094282 191.0
157.084756 102.0
157.097046 211.0
158.079591 135.0
158.085761 139.0
158.098071 63.0
159.075116 37.0
159.094875 152.0
159.104765 327.0
159.119595 327.0
160.08985 155.0
161.099125 774.0
162.102839 60.0
163.092154 95.0
163.114684 152.0
164.065648 34.0
164.085728 51.0
165.070993 49.0
165.082323 557.0
166.084448 163.0
166.094548 78.0
167.085832 146.0
168.090207 122.0
169.068301 18.0
169.089961 128.0
169.102701 160.0
170.111836 119.0
171.08554 115.0
171.10733 70.0
172.087695 195.0
173.09668 298.0
174.062064 57.0
174.068534 123.0
174.112464 16.0
175.113099 640.0
176.084093 46.0
177.095558 34.0
177.112508 92.0
177.126838 215.0
178.078553 165.0
179.099687 187.0
180.081642 16.0
180.089522 61.0
181.084736 70.0
181.101866 138.0
181.119026 30.0
182.094591 59.0
182.109141 80.0
183.067496 37.0
183.097965 46.0
183.113885 89.0
184.09349 37.0
184.11077 35.0
185.099695 187.0
185.114365 124.0
185.135674 25.0
186.087259 31.0
186.108629 123.0
186.117989 39.0
187.114964 419.0
188.075638 51.0
188.122658 31.0
189.081873 102.0
189.096683 217.0
189.141153 23.0
190.081348 40.0
190.131317 36.0
191.073972 73.0
191.102392 176.0
192.077317 29.0
192.107187 26.0
192.979862 45.0
193.102351 67.0
193.115961 82.0
193.124141 121.0
194.079626 27.0
194.106926 45.0
195.0963 59.0
195.11682 133.0
196.117005 33.0
196.132105 45.0
197.09774 84.0
197.106 114.0
198.100224 33.0
199.114909 166.0
200.114203 38.0
201.106248 68.0
201.131258 98.0
202.081263 152.0
202.096583 86.0
203.103307 98.0
203.110277 409.0
203.125627 221.0
204.102742 41.0
204.119522 55.0
205.114416 26.0
205.117246 120.0
205.131266 191.0
206.134251 41.0
207.033966 70.0
207.114315 87.0
208.08962 29.0
208.1193 36.0
209.096985 36.0
209.111145 66.0
209.121065 49.0
209.132404 72.0
210.105359 39.0
210.142269 40.0
211.121854 88.0
211.137504 63.0
211.148884 61.0
212.123658 43.0
213.109263 72.0
213.129283 92.0
214.137277 31.0
215.113172 149.0
215.121802 125.0
215.140472 56.0
217.084601 56.0
217.106251 48.0
217.119251 72.0
218.106246 19.0
219.095481 40.0
219.12883 129.0
219.13897 133.0
220.114565 39.0
220.127645 60.0
221.11272 67.0
221.13455 72.0
222.105814 45.0
222.127714 42.0
223.114309 55.0
223.120149 154.0
223.133339 65.0
224.084034 22.0
224.123623 57.0
225.129338 110.0
227.100267 47.0
227.137177 67.0
228.096372 23.0
228.115592 22.0
229.102036 75.0
229.128726 78.0
229.136146 67.0
230.138161 28.0
231.118555 121.0
231.134925 52.0
231.169185 99.0
232.09654 27.0
233.106485 40.0
233.136415 52.0
233.157364 54.0
235.132994 46.0
235.148024 45.0
236.119438 34.0
236.145028 31.0
237.130573 93.0
237.142633 120.0
237.153193 66.0
238.133267 38.0
239.107802 20.0
239.147182 199.0
240.155657 35.0
241.128221 74.0
241.155611 60.0
242.128666 28.0
242.989151 23.0
243.13729 96.0
243.14646 104.0
244.118935 16.0
245.10407 34.0
245.12862 37.0
245.160839 23.0
246.137334 36.0
247.135769 97.0
247.151169 45.0
249.131018 44.0
250.133953 23.0
251.146677 48.0
251.155997 59.0
252.152112 32.0
253.125266 53.0
253.142416 55.0
253.164236 112.0
255.128845 37.0
255.141375 77.0
255.160135 97.0
257.148165 49.0
257.156004 151.0
258.129329 54.0
259.137594 43.0
261.161633 53.0
262.131388 30.0
263.134702 51.0
263.144232 45.0
264.104947 18.0
264.152707 24.0
265.129571 42.0
267.122391 56.0
267.1544 117.0
267.17521 29.0
269.15799 19.0
269.169249 102.0
269.191739 66.0
271.146499 56.0
271.170669 116.0
273.166578 53.0
273.190868 44.0
275.161677 74.0
277.129776 21.0
277.152606 32.0
277.168936 48.0
279.160555 86.0
279.175295 163.0
281.167504 248.0
281.182304 36.0
283.059704 23.0
283.145404 42.0
285.151733 52.0
285.194763 28.0
287.150202 33.0
287.171772 21.0
288.158707 20.0
289.163981 43.0
290.129316 33.0
291.17813 47.0
292.153465 17.0
293.13384 37.0
293.16738 61.0
295.143199 17.0
295.163399 47.0
295.176859 103.0
295.198739 43.0
296.150453 30.0
297.189848 355.0
299.162217 75.0
299.180837 247.0
300.176282 107.0
301.149606 25.0
301.178506 65.0
303.175965 31.0
304.18145 33.0
305.193744 77.0
306.169999 27.0
307.177014 85.0
308.125459 76.0
309.158073 56.0
309.192533 67.0
310.132008 20.0
311.174882 49.0
311.200792 175.0
313.182651 95.0
314.190706 60.0
315.1986 667.0
317.15999 39.0
317.198349 22.0
319.172919 22.0
319.206179 24.0
321.176448 63.0
321.188748 143.0
322.195512 22.0
323.175667 86.0
323.203837 296.0
325.172246 92.0
325.202276 25.0
327.167925 23.0
329.167885 17.0
329.208784 40.0
331.179324 27.0
331.206054 36.0
332.199818 28.0
333.211173 542.0
337.158601 28.0
337.196381 38.0
339.18703 59.0
339.20146 422.0
340.198105 30.0
340.217995 44.0
341.217929 1076.0
343.180479 59.0
343.193199 296.0
345.185078 20.0
347.200967 42.0
349.193446 50.0
349.209926 81.0
351.204485 52.0
353.191805 27.0
355.230913 74.0
356.199048 52.0
357.185163 31.0
357.212963 165.0
358.209727 99.0
359.226472 204.0
363.20518 23.0
365.19244 36.0
365.220519 144.0
366.189054 24.0
367.203909 642.0
368.180703 29.0
369.187018 18.0
369.203958 53.0
373.252516 41.0
377.212794 27.0
379.218884 36.0
381.211183 25.0
382.212157 30.0
383.227872 330.0
384.181567 18.0
384.231496 66.0
385.194131 110.0
385.205641 1206.0
389.217089 52.0
389.267319 34.0
391.264508 27.0
393.216278 30.0
397.241766 16.0
399.214235 19.0
401.224934 225.0
401.234754 1637.0
402.240059 47.0
402.249889 59.0
403.226934 22.0
405.204343 39.0
407.220172 123.0
413.20213 16.0
415.263708 40.0
417.246358 100.0
418.255452 19.0
419.259777 139.0
420.233192 18.0
421.237856 47.0
425.248394 61.0
433.277521 160.0
433.304011 30.0
434.254786 57.0
435.25566 100.0
436.224925 22.0
437.273109 187.0
439.235709 39.0
439.256249 49.0
440.090204 14.0
443.262757 140.0
445.246966 27.0
446.248001 19.0
447.250165 21.0
450.279959 17.0
451.236684 29.0
451.288713 96.0
453.272043 22.0
455.274352 137.0
457.264331 24.0
460.268985 24.0
461.267789 1278.0
462.284564 18.0
463.249739 91.0
468.292011 17.0
473.295524 69.0
477.263553 36.0
478.269927 197.0
479.288082 6133.0
480.300886 58.0
481.228801 17.0
481.267471 100.0
484.071776 25.0
485.09176 20.0
495.276665 47.0
496.28875 301.0
497.297504 9069.0
498.939455 33.0
499.259004 56.0
499.274324 82.0
507.27367 31.0
513.281638 24.0
514.300792 140.0
515.307687 5211.0
525.286883 66.0
532.317485 15.0
535.280119 22.0
538.282842 23.0
568.2673 22.0
573.310913 19.0
573.339053 28.0
574.331657 62.0
585.300228 6.0
586.329212 42.0
610.323652 33.0
628.361395 29.0
634.345132 56.0
640.30768 25.0
658.340112 33.0
659.338337 28.0
676.370655 19.0
694.311728 33.0
694.365927 158.0
694.399487 32.0

