>compound 
>formula C20H22O8
>parentmass 391.13874866562
>ionization [M + H]+
>instrumentation Unknown (LCMS)
>source file:/Users/fanzhoukong/Documents/GitHub/Libgen/data/EAD_PFP/0_unknown_/spectrum.ms
>quality UNKNOWN

>ms2peaks
50.018546 157.0
51.026051 404.0
52.034415 112.0
53.04194 115.0
54.048334 24.0
55.056909 148.0
56.057213 40.0
57.073178 35.0
60.987827 37.0
62.017251 58.0
64.03215 77.0
65.043385 618.0
66.049809 260.0
67.059144 137.0
68.027648 66.0
68.997393 184.0
73.014491 37.0
74.016506 48.0
75.026201 65.0
76.033335 51.0
77.03945 814.0
78.048714 479.0
79.057579 667.0
80.056273 155.0
81.062988 34.0
81.072698 164.0
82.043173 52.0
83.053347 422.0
87.024206 27.0
89.037015 12.0
89.042565 187.0
90.046469 42.0
91.057884 1602.0
92.027949 21.0
92.049558 64.0
92.061778 110.0
93.072123 119.0
94.044278 250.0
95.053002 121.0
97.033501 69.0
100.114585 24.0
102.048874 65.0
103.058759 86.0
104.062633 80.0
105.070358 83.0
107.051717 355.0
108.056472 80.0
109.066936 325.0
111.046236 376.0
113.004795 36.0
114.046449 75.0
114.053779 30.0
115.059264 482.0
116.064948 79.0
117.058043 60.0
117.065463 80.0
117.071823 77.0
118.064958 44.0
119.063352 40.0
119.087942 30.0
120.017657 42.0
120.026237 43.0
121.031791 163.0
122.039386 180.0
123.047891 210.0
124.046365 31.0
124.053995 94.0
125.00286 27.0
125.06201 177.0
126.035614 25.0
126.055404 39.0
127.053839 135.0
128.065083 380.0
129.069198 134.0
130.068293 63.0
131.054417 24.0
131.077967 20.0
132.020642 22.0
133.031067 30.0
133.063836 99.0
134.097531 23.0
135.046406 324.0
136.05464 607.0
137.063165 182.0
138.065059 89.0
139.046324 361.0
140.050789 200.0
141.073993 98.0
141.930478 29.0
143.083522 82.0
145.067141 25.0
145.082491 64.0
146.044546 45.0
147.043031 28.0
147.08223 20.0
147.11432 32.0
149.02632 314.0
150.037344 105.0
151.049379 164.0
151.062619 228.0
152.058773 363.0
153.059408 103.0
154.064523 2275.0
155.071737 251.0
156.056522 27.0
156.079772 36.0
156.093252 34.0
157.080026 72.0
157.098446 49.0
158.093331 32.0
159.088885 33.0
160.06526 40.0
161.074435 28.0
161.099305 70.0
162.044399 26.0
162.069349 42.0
163.043554 278.0
164.054559 278.0
165.071183 346.0
166.025318 32.0
166.068228 51.0
167.037902 550.0
168.047227 84.0
168.054857 106.0
168.067547 142.0
169.086321 832.0
170.083906 40.0
171.044731 70.0
171.09854 39.0
172.091775 25.0
173.08528 38.0
173.10977 31.0
174.037715 35.0
175.069239 29.0
176.050494 40.0
177.020148 35.0
177.046228 43.0
177.087928 30.0
178.076143 84.0
179.036957 108.0
179.074967 71.0
179.086757 45.0
180.079222 28.0
180.089732 43.0
181.058586 57.0
181.078356 101.0
182.060441 891.0
183.067716 3122.0
184.05382 48.0
184.08042 27.0
185.058595 33.0
185.101235 62.0
187.053544 36.0
187.095074 51.0
188.046289 52.0
189.063243 134.0
189.079393 81.0
191.037622 110.0
191.074182 94.0
192.040887 44.0
192.051747 117.0
192.981442 47.0
193.056302 53.0
194.058026 19.0
195.073281 111.0
196.081575 34.0
196.095285 41.0
196.122725 30.0
197.0966 3769.0
198.032905 42.0
198.105964 44.0
199.062639 94.0
200.050684 18.0
201.050918 35.0
201.095368 31.0
202.078713 38.0
202.091243 48.0
203.078407 47.0
203.144037 60.0
204.088962 22.0
205.089416 24.0
206.064171 33.0
207.063816 192.0
208.04748 51.0
208.07714 27.0
209.032075 37.0
209.066055 29.0
210.071519 20.0
211.085074 56.0
212.021179 24.0
213.052303 55.0
214.058698 42.0
215.070312 25.0
217.040112 51.0
217.097841 66.0
218.099256 30.0
219.065271 31.0
219.102981 17.0
220.113365 32.0
221.08237 181.0
222.094384 30.0
223.057499 53.0
223.070669 55.0
223.082369 62.0
224.104813 24.0
225.059048 62.0
225.098738 24.0
226.078633 23.0
227.072477 39.0
227.099057 35.0
228.046322 19.0
229.048927 47.0
230.061151 27.0
231.062236 33.0
231.102426 29.0
232.12515 18.0
233.093305 32.0
234.066469 16.0
237.065973 61.0
237.084063 50.0
239.027793 39.0
239.074742 26.0
240.042087 37.0
241.060062 51.0
241.087431 27.0
242.095406 23.0
243.068841 37.0
244.074825 20.0
245.04916 16.0
245.09364 56.0
250.069183 22.0
250.999498 24.0
251.100397 24.0
252.041982 16.0
253.049207 41.0
253.086607 34.0
255.049346 23.0
255.066556 63.0
255.086896 37.0
256.039041 24.0
257.069915 46.0
258.05566 20.0
259.063804 28.0
259.101644 33.0
261.081193 45.0
263.084172 33.0
265.021442 51.0
265.090022 35.0
267.028241 20.0
267.063461 61.0
268.045686 26.0
268.074555 36.0
269.05063 88.0
269.09241 46.0
270.054225 20.0
271.096789 176.0
272.065414 21.0
273.079478 67.0
273.110238 32.0
275.058008 29.0
281.043025 45.0
281.056145 96.0
282.05392 36.0
283.061664 61.0
284.062969 45.0
285.041234 28.0
285.084233 72.0
286.031128 28.0
286.070888 44.0
287.127312 360.0
294.050645 22.0
295.071179 49.0
295.123329 29.0
296.068184 59.0
297.039889 35.0
297.077028 60.0
298.055443 13.0
298.084193 18.0
299.091387 62.0
299.094777 131.0
300.061232 48.0
301.075147 74.0
302.078861 26.0
305.072615 18.0
309.055083 32.0
311.066393 63.0
312.065807 127.0
312.086587 36.0
313.073802 71.0
313.110202 81.0
314.081666 39.0
315.058101 41.0
315.073761 32.0
315.092891 82.0
316.097035 55.0
317.08708 48.0
317.10625 17.0
318.073405 18.0
325.070167 28.0
326.079461 26.0
327.072596 44.0
327.090326 270.0
328.08855 66.0
329.077615 223.0
329.106055 38.0
330.07532 41.0
331.120854 116.0
331.138674 188.0
331.154724 72.0
332.091299 18.0
333.066733 21.0
333.098893 41.0
339.088211 17.0
341.13328 40.0
342.111025 40.0
343.088349 121.0
344.090684 82.0
344.110674 70.0
345.092638 181.0
346.068763 27.0
347.121067 54.0
348.083552 18.0
357.109693 48.0
358.104468 47.0
359.113652 308.0
360.096337 41.0
360.118647 198.0
361.093432 272.0
363.114111 62.0
363.142101 40.0
371.153227 23.0
373.137497 56.0
373.192366 39.0
375.115666 739.0
376.10101 33.0
376.12381 67.0
390.118665 24.0
390.130265 157.0
391.164199 409.0
391.183569 367.0

