>compound 
>formula C15H14O5
>parentmass 297.07334454907004
>ionization [M + Na]+
>instrumentation Unknown (LCMS)
>source file:/Users/fanzhoukong/Documents/GitHub/Libgen/data/EAD_PFP/0_unknown_/spectrum.ms
>quality UNKNOWN

>ms2peaks
50.015088 81.0
51.021899 306.0
52.026731 71.0
53.038502 70.0
54.033374 16.0
55.052755 70.0
56.058187 16.0
57.032018 18.0
57.068278 32.0
58.0635 22.0
59.046991 14.0
60.982904 35.0
62.013866 51.0
63.022347 201.0
64.027999 35.0
65.03844 619.0
66.043262 133.0
67.053383 266.0
68.994046 195.0
70.007547 23.0
70.993769 13.0
71.049909 14.0
74.010663 20.0
74.014873 36.0
75.022035 38.0
76.029176 43.0
77.036148 522.0
78.041959 212.0
79.055161 282.0
80.055622 63.0
81.067654 123.0
82.045225 19.0
84.96072 60.0
86.012291 14.0
88.015314 14.0
89.039336 151.0
90.045117 43.0
91.055599 1103.0
92.05387 178.0
93.066092 45.0
94.064833 47.0
95.053634 48.0
95.084195 92.0
95.951616 22.0
96.081206 22.0
97.950189 26.0
99.04199 18.0
99.992862 28.0
101.006353 24.0
102.041775 69.0
103.049656 49.0
104.054498 51.0
105.070239 158.0
106.069731 66.0
107.082052 53.0
108.080864 24.0
109.072025 38.0
111.045208 33.0
112.00422 19.0
112.999631 58.0
113.058991 32.0
114.037103 18.0
115.055144 401.0
116.059776 72.0
117.050757 13.0
117.062417 73.0
118.066168 40.0
118.99832 22.0
119.08062 64.0
119.08596 49.0
120.054331 14.0
120.081161 39.0
121.027683 30.0
121.068643 45.0
121.099903 46.0
122.073154 20.0
123.080736 51.0
125.023949 23.0
126.04581 22.0
126.904032 16.0
127.055262 70.0
128.063203 185.0
129.019475 50.0
129.059545 24.0
130.066426 76.0
130.993138 57.0
131.049218 31.0
131.083968 39.0
133.067661 34.0
134.091182 18.0
135.086744 19.0
137.057937 22.0
137.098077 14.0
139.008759 11.0
139.0538 25.0
141.062942 55.0
142.067644 60.0
143.087655 29.0
144.079547 33.0
145.093758 32.0
145.973 24.0
147.073441 24.0
149.061734 60.0
150.047686 22.0
151.051337 28.0
152.052299 44.0
152.061969 103.0
153.01658 183.0
153.03718 48.0
153.06868 52.0
154.065342 58.0
154.076302 57.0
155.059153 32.0
155.065253 42.0
155.084773 30.0
157.102996 23.0
158.092988 29.0
159.087329 35.0
159.119449 51.0
160.081051 35.0
160.115751 14.0
161.023162 14.0
161.091552 37.0
162.980735 36.0
163.054535 22.0
163.113335 22.0
164.061816 37.0
165.070928 88.0
166.064219 49.0
166.071789 30.0
167.066811 46.0
168.069862 42.0
168.083842 30.0
169.070864 17.0
169.101424 40.0
170.070965 15.0
171.070197 32.0
171.113757 17.0
172.109588 26.0
173.04776 206.0
173.993661 21.0
175.040593 18.0
175.109293 28.0
176.062094 24.0
177.065696 28.0
177.155646 21.0
178.070847 29.0
179.068359 17.0
179.095889 31.0
180.06865 29.0
181.062502 35.0
181.084912 27.0
182.090823 22.0
183.074325 25.0
183.092885 23.0
183.116745 24.0
184.089716 24.0
184.109656 21.0
185.133248 14.0
187.073691 22.0
187.112541 18.0
187.146051 17.0
189.074083 36.0
190.060045 19.0
191.033666 46.0
191.101366 24.0
192.982929 46.0
193.091819 35.0
194.097741 23.0
195.107622 24.0
195.987104 14.0
197.095395 21.0
197.128415 11.0
198.126847 20.0
199.120888 9.0
201.115051 24.0
202.074773 27.0
203.138694 30.0
205.092487 26.0
205.135997 32.0
205.157037 28.0
206.093999 14.0
207.02886 65.0
208.107162 31.0
209.067803 28.0
209.101823 21.0
209.131553 22.0
210.101685 14.0
211.061246 21.0
211.143796 10.0
215.085102 13.0
215.184242 16.0
218.096816 13.0
219.057038 283.0
221.090151 21.0
223.126784 28.0
226.077718 17.0
229.096963 14.0
229.156273 17.0
231.101566 12.0
233.156769 57.0
235.151972 76.0
237.111914 40.0
237.182825 19.0
239.081527 13.0
243.170413 26.0
246.101518 14.0
247.133799 26.0
247.167669 21.0
248.974432 16.0
251.122995 19.0
251.174225 17.0
254.10462 23.0
256.091713 11.0
261.15025 43.0
261.18825 23.0
265.020866 95.0
267.003679 39.0
267.018089 15.0
268.987452 16.0
275.083531 59.0
279.065497 21.0
279.148967 42.0
279.173537 65.0
279.199717 26.0
281.049149 272.0
282.051861 18.0
283.054672 19.0
297.117283 66.0
297.135873 70.0
297.157813 124.0
297.176393 201.0

