>compound 
>formula C40H44O17
>parentmass 819.24707095081
>ionization [M + Na]+
>instrumentation Unknown (LCMS)
>source file:/Users/fanzhoukong/Documents/GitHub/Libgen/data/EAD_PFP/0_unknown_/spectrum.ms
>quality UNKNOWN

>ms2peaks
126.043992 91.0
127.051222 120.0
128.060253 391.0
129.066584 101.0
130.065684 99.0
131.056325 52.0
131.076505 64.0
133.065786 41.0
134.991508 42.0
135.989228 11.0
137.098449 55.0
139.05189 103.0
140.049411 31.0
141.069142 195.0
142.076212 103.0
143.077493 47.0
144.077584 59.0
145.100044 36.0
146.100065 11.0
163.056176 36.0
164.062197 90.0
165.068808 372.0
166.070918 83.0
167.081129 134.0
168.07281 50.0
168.08805 53.0
169.06997 51.0
170.090531 52.0
171.096202 108.0
171.116712 83.0
172.097152 44.0
173.117753 36.0
175.109694 22.0
176.062485 69.0
177.067396 39.0
178.062086 26.0
178.076476 276.0
179.084487 190.0
180.082198 74.0
181.054998 57.0
182.096499 78.0
182.193009 109.0
184.03431 29.0
185.045671 27.0
186.129322 19.0
187.052652 43.0
187.146442 40.0
188.058843 42.0
189.065054 156.0
190.071234 55.0
190.997505 136.0
191.082805 38.0
192.000686 65.0
192.091626 53.0
192.979246 113.0
194.107697 85.0
196.084878 69.0
197.123309 34.0
198.13 31.0
199.07429 320.0
200.063781 36.0
201.069612 41.0
202.079353 147.0
203.144683 214.0
204.144234 24.0
205.091515 66.0
205.161655 40.0
207.032096 166.0
208.034077 34.0
209.028557 32.0
209.119227 30.0
210.126228 33.0
211.147039 27.0
212.141809 22.0
213.16178 36.0
215.082641 148.0
216.085152 25.0
218.092873 40.0
219.082104 67.0
223.068667 35.0
224.142407 27.0
225.052648 33.0
226.073699 32.0
227.067549 22.0
228.08873 46.0
229.092911 28.0
230.109711 43.0
232.111273 11.0
237.195306 11.0
239.086487 46.0
242.104199 17.0
242.98755 24.0
245.125501 27.0
248.990314 46.0
250.158745 14.0
250.975955 35.0
252.271936 12.0
265.019695 96.0
267.013686 41.0
269.991348 26.0
271.137039 70.0
276.095482 15.0
279.061024 41.0
281.054525 157.0
282.049006 54.0
283.073237 12.0
287.0726 12.0
293.078954 44.0
299.062778 28.0
301.094029 12.0
307.055703 12.0
311.210096 12.0
317.08742 12.0
326.945486 12.0
342.015566 29.0
346.087589 12.0
355.069565 23.0
385.126315 12.0
393.103161 25.0
395.112072 52.0
399.106155 19.0
409.107931 23.0
413.116204 297.0
426.119293 24.0
427.100643 32.0
428.109434 61.0
429.115385 121.0
439.093942 19.0
453.117721 21.0
457.117754 54.0
462.078237 12.0
469.140472 12.0
471.130733 57.0
503.145554 12.0
520.191956 12.0
521.164367 27.0
530.157293 12.0
531.170543 12.0
536.151437 40.0
547.149614 73.0
548.156025 31.0
554.130889 12.0
554.605979 12.0
557.139671 20.0
559.155482 32.0
562.166294 39.0
563.149265 213.0
565.145596 88.0
571.14652 21.0
574.156532 38.0
575.131143 40.0
575.147563 34.0
576.153543 22.0
577.169774 116.0
579.153115 45.0
585.149579 12.0
588.141591 28.0
589.149282 65.0
591.165024 86.0
592.161004 26.0
594.148426 37.0
602.157771 28.0
605.166383 46.0
606.147644 57.0
607.170654 35.0
608.158325 46.0
609.173406 28.0
617.151681 19.0
618.169322 23.0
620.153513 24.0
621.161444 25.0
625.169566 12.0
631.15053 12.0
635.161033 31.0
637.177204 43.0
639.181786 24.0
641.201867 26.0
647.179041 34.0
649.154322 35.0
649.169282 56.0
651.197604 83.0
653.161465 27.0
653.204005 38.0
655.180936 26.0
659.206639 12.0
661.1926 51.0
663.186562 43.0
665.178503 23.0
666.179424 25.0
667.181075 173.0
668.183455 20.0
669.201826 163.0
670.198097 375.0
673.171129 12.0
678.164602 42.0
679.190543 86.0
681.193534 41.0
683.179065 90.0
684.178026 55.0
685.195667 2053.0
686.211477 31.0
695.199273 169.0
696.199214 157.0
696.206964 230.0
697.205075 1326.0
698.190915 74.0
699.208556 651.0
707.175791 25.0
709.183113 30.0
709.193553 80.0
710.198313 34.0
713.185435 43.0
715.201247 12.0
721.163221 20.0
722.202771 84.0
723.203502 42.0
725.154313 12.0
727.189595 53.0
727.197525 154.0
728.206985 220.0
729.219866 93.0
739.205713 63.0
740.204804 71.0
750.51224 12.0
751.215551 12.0
753.225252 12.0
757.201455 43.0
759.224586 86.0
769.195723 26.0
769.209333 206.0
769.228323 103.0
771.237474 34.0
779.34679 12.0
783.213132 30.0
783.240532 20.0
787.212645 61.0
787.220885 150.0
789.234126 53.0
799.222603 83.0
800.242074 591.0
801.234444 102.0
801.251104 87.0
809.93721 11.0
815.206624 29.0
816.222244 56.0
816.227805 77.0
817.235675 902.0
818.238546 2259.0
819.253257 4644.0

