>compound 
>formula C18H36N4O11
>parentmass 507.22727899327
>ionization [M + Na]+
>instrumentation Unknown (LCMS)
>source file:/Users/fanzhoukong/Documents/GitHub/Libgen/data/EAD_PFP/0_unknown_/spectrum.ms
>quality UNKNOWN

>ms2peaks
104.278447 11.0
108.04008 67.0
108.04721 233.0
115.055048 125.0
117.049574 126.0
118.034102 248.0
119.03986 81.0
119.05803 119.0
119.06658 162.0
120.084238 216.0
121.046937 51.0
122.061085 103.0
123.079473 30.0
128.046344 24.0
129.057092 22.0
135.036371 101.0
135.045481 157.0
136.02285 36.0
136.043419 2552.0
142.073159 24.0
144.085095 36.0
145.040323 81.0
145.063913 128.0
145.074533 151.0
146.029471 3384.0
147.056429 1463.0
147.606968 45.0
148.070318 1299.0
149.074506 368.0
150.056894 57.0
150.076104 97.0
151.066582 56.0
152.06156 115.0
153.039189 29.0
153.069479 58.0
153.091298 44.0
154.077097 68.0
154.619896 47.0
155.108735 5393.0
156.045913 124.0
156.067953 40.0
157.041171 53.0
158.02479 56.0
158.037109 113.0
159.051018 50.0
160.038446 164.0
161.072424 62.0
162.019952 245.0
162.029932 109.0
162.084802 64.0
163.08907 2103.0
163.49466 121.0
163.5147 70.0
164.028709 410.0
164.039979 9785.0
164.798697 69.0
165.040227 93.0
165.057847 136.0
165.074207 68.0
166.066235 33.0
166.117995 42.0
168.079511 37.0
170.048718 129.0
170.099818 75.0
173.071692 1031.0
174.06287 581.0
175.073709 215.0
175.089278 106.0
176.031617 44.0
176.049797 95.0
176.062797 268.0
177.066405 679.0
178.054563 282.0
178.420752 65.0
179.083491 31.0
180.01546 29.0
181.123848 322.0
182.038636 31.0
182.153646 22.0
183.125384 30.0
184.116982 27.0
185.05262 50.0
185.06195 44.0
185.12992 35.0
187.054267 80.0
188.051065 45.0
189.061263 20.0
189.078803 29.0
190.078251 1330.0
190.470121 49.0
191.088489 11060.0
192.060648 462.0
193.065246 1368.0
197.087769 52.0
197.152428 32.0
198.076467 29.0
199.081425 52.0
200.080623 31.0
201.069831 2037.0
202.0392 29.0
202.054499 56.0
203.024838 39.0
203.054148 59.0
203.075078 75.0
203.086248 54.0
204.068856 82.0
205.058034 37.0
206.081942 29.0
207.03371 31.0
207.08727 51.0
208.085139 448.0
209.093897 5099.0
210.144875 50.0
211.115913 28.0
212.454571 52.0
213.058999 98.0
214.069688 18.0
215.088536 34.0
217.062762 41.0
217.095942 46.0
218.06845 311.0
219.080789 5221.0
220.056257 76.0
220.070797 131.0
221.057185 981.0
222.050173 188.0
223.076111 2822.0
227.077994 163.0
228.071082 30.0
229.06042 77.0
230.169268 38.0
233.060043 64.0
233.107913 33.0
235.083359 23.0
236.084738 3582.0
236.309077 217.0
236.833416 38.0
237.092796 21461.0
243.158655 495.0
247.066468 476.0
247.075718 4467.0
249.007344 11.0
251.06909 831.0
264.112997 117.0
264.211716 105.0
265.078665 878.0
265.085035 18688.0
266.429702 28.0
279.096919 80.0
283.109392 90.0
316.553601 116.0
319.351936 12.0
321.106693 34.0
327.120602 56.0
328.1242 64.0
329.129328 70.0
331.502614 29.0
332.303943 30.0
334.265819 12.0
342.669524 40.0
419.178635 76.0
507.211275 46.0
507.244385 420.0
507.270845 76.0
507.284095 116.0
507.321595 252.0
507.350284 91.0

