>compound 
>formula C40H44O17
>parentmass 797.26513095081
>ionization [M + H]+
>instrumentation Unknown (LCMS)
>source file:/Users/fanzhoukong/Documents/GitHub/Libgen/data/EAD_PFP/0_unknown_/spectrum.ms
>quality UNKNOWN

>ms2peaks
50.014771 227.0
51.023671 974.0
52.027102 115.0
53.038883 295.0
55.054584 312.0
56.049765 87.0
57.070135 47.0
59.051137 25.0
60.983278 75.0
62.014239 86.0
63.021169 252.0
64.02759 45.0
65.040401 782.0
66.046021 94.0
67.056962 295.0
68.992793 106.0
69.993994 27.0
73.035816 50.0
74.013567 117.0
75.020717 111.0
76.029548 164.0
77.038249 2116.0
79.05293 712.0
80.052491 143.0
81.064501 144.0
82.057142 20.0
85.027924 139.0
87.024085 31.0
89.035097 255.0
90.044557 64.0
91.056918 1612.0
92.057069 203.0
93.069299 143.0
94.06521 102.0
95.082661 85.0
97.025882 28.0
100.110824 63.0
102.048085 137.0
103.051026 355.0
104.049877 42.0
105.071627 191.0
106.066068 70.0
107.049999 716.0
108.078179 92.0
109.10105 30.0
111.002231 26.0
113.003133 65.0
115.054474 1337.0
116.060155 181.0
117.068095 239.0
119.052137 167.0
120.081548 40.0
121.030228 424.0
123.040909 85.0
126.047292 76.0
127.056742 373.0
128.064683 877.0
129.065474 156.0
129.068814 425.0
130.071284 128.0
131.048465 884.0
132.081106 64.0
133.068036 77.0
134.037107 76.0
135.047278 54.0
137.031939 24.0
137.060609 80.0
139.05419 299.0
140.048251 40.0
140.063331 58.0
141.071482 635.0
142.072712 90.0
143.059933 58.0
143.072803 157.0
143.082173 131.0
144.070534 88.0
144.077584 55.0
145.062284 101.0
145.071724 110.0
145.968655 42.0
147.045296 573.0
148.061516 29.0
150.045678 66.0
151.056548 152.0
152.059939 692.0
153.06302 313.0
155.071751 133.0
156.082242 32.0
157.072692 126.0
158.087203 59.0
158.100753 59.0
159.044464 164.0
160.054174 101.0
161.055885 80.0
161.073295 81.0
161.080735 105.0
163.048666 81.0
163.053676 183.0
164.063457 225.0
164.534337 25.0
165.070058 2193.0
166.078498 193.0
167.083659 326.0
168.05883 181.0
169.06871 329.0
170.070081 77.0
170.082871 96.0
171.042382 540.0
172.052162 33.0
173.018523 54.0
173.057183 121.0
174.043154 45.0
175.033214 146.0
176.063785 349.0
177.067396 368.0
178.079086 903.0
179.085797 449.0
180.088768 84.0
181.065538 1090.0
182.072709 293.0
182.191699 87.0
183.04557 69.0
183.07737 389.0
184.05156 223.0
185.057671 162.0
187.053992 60.0
187.066042 108.0
189.056974 138.0
189.066404 663.0
190.079344 178.0
191.082805 262.0
192.084836 37.0
192.983336 85.0
193.064986 66.0
193.094936 55.0
194.073577 233.0
194.080377 149.0
195.079298 240.0
196.084878 30.0
197.062789 362.0
198.0652 180.0
199.07844 3445.0
200.049931 107.0
200.067931 52.0
201.054342 118.0
201.065442 149.0
202.079353 444.0
203.083253 123.0
203.113973 132.0
204.068634 52.0
204.085434 35.0
204.116234 39.0
205.066245 208.0
206.073305 65.0
207.067346 133.0
207.081426 518.0
208.070827 73.0
209.041317 55.0
209.063967 147.0
210.070858 151.0
211.077309 311.0
213.05882 294.0
214.073831 71.0
214.098181 32.0
215.081191 210.0
216.077972 65.0
217.062603 60.0
217.078493 83.0
217.101573 72.0
218.074083 168.0
219.080654 334.0
220.056125 30.0
220.085185 33.0
220.095355 42.0
221.061435 146.0
221.071605 270.0
222.070476 74.0
223.077437 442.0
224.077887 90.0
225.090858 423.0
226.067809 108.0
227.073459 234.0
228.07985 141.0
229.064751 70.0
229.082541 173.0
231.085582 226.0
232.087393 79.0
233.061453 53.0
233.091363 58.0
234.067524 240.0
235.074255 699.0
236.083165 128.0
237.058026 91.0
237.086676 275.0
238.062117 83.0
239.072837 1591.0
240.087248 137.0
241.085539 1162.0
242.075239 46.0
242.096589 54.0
243.07307 108.0
244.080611 72.0
245.050351 34.0
245.073361 131.0
245.091771 55.0
246.078892 57.0
247.077223 379.0
248.080673 98.0
249.069154 82.0
249.084614 154.0
250.059585 207.0
251.070635 577.0
252.077486 293.0
253.089467 1150.0
254.095667 55.0
255.069448 116.0
256.073309 60.0
257.085429 886.0
258.07276 64.0
259.074621 95.0
260.086341 60.0
261.092082 179.0
262.064893 59.0
262.096603 33.0
263.072883 1718.0
264.078014 519.0
265.085095 1301.0
266.066905 91.0
266.084485 128.0
266.098865 45.0
267.077746 271.0
267.090526 144.0
268.069627 201.0
269.082657 426.0
270.089558 204.0
271.098319 880.0
272.079879 45.0
273.06969 78.0
273.09237 102.0
274.064531 122.0
275.067711 368.0
276.084092 341.0
277.086053 548.0
278.055503 45.0
278.091454 88.0
279.067584 364.0
280.073295 114.0
281.082456 984.0
282.086846 123.0
283.084777 37.0
283.099607 279.0
284.089448 67.0
285.049558 27.0
285.082638 121.0
285.095878 69.0
286.082549 203.0
286.104089 101.0
287.08752 267.0
289.059481 102.0
289.086121 248.0
290.069672 77.0
290.094692 68.0
291.059872 262.0
291.073242 270.0
291.086642 204.0
292.075223 161.0
293.082304 524.0
294.094454 169.0
295.093205 371.0
296.075106 46.0
297.075506 309.0
298.092837 64.0
299.091558 306.0
300.088568 45.0
301.087229 147.0
302.09437 50.0
303.0691 257.0
303.08445 202.0
304.082961 99.0
305.081402 689.0
306.090042 138.0
306.105452 57.0
307.095193 290.0
308.067604 52.0
309.076034 406.0
310.086075 86.0
311.092576 387.0
313.074117 44.0
314.081988 37.0
315.081038 215.0
316.072989 72.0
317.08568 166.0
318.09475 44.0
319.066911 45.0
319.096671 209.0
320.070362 53.0
321.077142 501.0
321.108722 100.0
322.087243 36.0
323.093684 294.0
325.105915 77.0
326.067526 27.0
326.097586 76.0
327.073056 65.0
327.101406 113.0
328.074797 66.0
328.096097 71.0
329.092308 189.0
330.091788 66.0
331.098169 136.0
332.07394 54.0
333.07794 347.0
334.087061 109.0
335.103062 218.0
336.086482 24.0
337.091153 100.0
337.107363 247.0
338.090124 66.0
339.085144 222.0
340.099675 39.0
341.068726 71.0
341.090426 148.0
341.103096 237.0
342.089846 37.0
343.097997 124.0
344.102178 47.0
345.084138 299.0
345.100528 150.0
346.083929 61.0
347.09431 193.0
348.09699 36.0
349.090161 53.0
349.108441 102.0
350.088392 57.0
350.099372 55.0
351.095382 249.0
352.100173 71.0
353.095314 119.0
353.110054 123.0
355.080645 86.0
355.108315 202.0
355.117565 559.0
357.073376 53.0
357.091876 148.0
357.115947 117.0
358.081097 34.0
358.097767 79.0
359.097668 111.0
361.096029 99.0
361.110919 127.0
362.11315 54.0
363.092491 101.0
364.103051 54.0
365.096302 109.0
365.103782 144.0
366.100273 57.0
367.107503 94.0
368.089834 48.0
368.104854 58.0
369.111075 267.0
370.088525 43.0
370.109245 41.0
371.108786 121.0
371.120106 110.0
372.103967 56.0
373.111867 359.0
374.113518 67.0
375.076689 79.0
375.097559 167.0
376.103789 36.0
377.11328 244.0
377.12661 490.0
379.101961 146.0
380.109712 71.0
381.109253 186.0
382.096713 36.0
383.093114 104.0
384.106145 80.0
385.112855 488.0
386.117006 163.0
387.120577 479.0
388.096467 47.0
388.133127 48.0
389.108378 169.0
390.131289 98.0
391.141979 2467.0
392.10932 63.0
393.097331 154.0
393.114811 128.0
394.102121 44.0
395.108192 126.0
396.096053 93.0
397.106613 457.0
397.114423 728.0
398.104774 79.0
398.116524 183.0
399.117905 369.0
400.104875 51.0
401.087206 32.0
401.100936 88.0
402.115887 76.0
403.116407 612.0
404.120128 51.0
405.097489 90.0
405.111319 148.0
406.113539 37.0
407.13878 795.0
408.103961 78.0
409.109911 1169.0
410.087332 27.0
410.119072 127.0
411.119553 290.0
412.103353 40.0
412.125233 68.0
413.096304 58.0
413.110224 158.0
414.108355 74.0
415.099725 49.0
415.125665 933.0
416.128256 359.0
417.110007 90.0
417.132017 148.0
418.247188 25.0
419.137168 285.0
420.114469 40.0
421.102929 110.0
421.123039 182.0
422.10061 37.0
422.11267 87.0
423.105501 63.0
423.113581 189.0
425.110812 117.0
425.118892 114.0
425.135072 88.0
426.117283 117.0
427.116823 935.0
428.121614 85.0
429.115385 87.0
429.131625 362.0
430.108275 52.0
430.126555 88.0
431.130806 244.0
432.107697 51.0
433.124458 284.0
434.140328 189.0
435.130869 156.0
437.10093 66.0
437.11732 106.0
438.107121 48.0
439.116522 512.0
440.131202 245.0
441.130593 420.0
442.126994 49.0
443.124494 165.0
444.127275 71.0
445.127056 886.0
447.098887 74.0
447.129957 111.0
448.131028 56.0
449.122848 107.0
449.145678 299.0
450.107439 70.0
451.12016 1465.0
452.12361 48.0
453.132341 228.0
454.119222 38.0
455.119712 83.0
455.132252 167.0
456.115043 84.0
457.096794 29.0
457.115654 37.0
457.126124 281.0
458.140404 118.0
459.130635 181.0
460.140826 53.0
461.110096 27.0
461.143756 30.0
463.123318 109.0
464.127348 45.0
465.119779 51.0
465.136679 163.0
467.10998 39.0
467.14807 55.0
468.141631 87.0
469.125612 1318.0
470.142512 81.0
471.134983 105.0
472.143404 37.0
473.093234 38.0
473.137974 132.0
473.152894 261.0
475.123876 207.0
477.122497 66.0
479.125308 41.0
479.133888 82.0
479.148898 310.0
480.122929 52.0
481.13447 176.0
482.12986 51.0
482.14493 83.0
483.152141 388.0
483.165051 787.0
484.117252 22.0
485.128702 71.0
487.109294 54.0
487.141734 204.0
489.145945 69.0
490.127916 27.0
491.147746 130.0
493.121018 162.0
493.138438 475.0
494.135268 48.0
495.150559 73.0
496.13197 21.0
497.14714 60.0
497.1646 517.0
498.130511 39.0
499.138962 371.0
500.144032 114.0
501.134783 67.0
501.152333 165.0
503.152154 2133.0
504.148065 35.0
505.160366 179.0
506.160486 73.0
507.152737 107.0
508.157008 27.0
509.120298 27.0
509.162289 229.0
510.144219 44.0
511.1448 2432.0
512.161861 30.0
512.199581 42.0
513.142271 37.0
513.164491 130.0
514.154662 37.0
515.148073 98.0
515.156983 227.0
517.146664 211.0
518.162965 251.0
519.164735 167.0
520.156256 62.0
521.162117 2158.0
523.156618 201.0
524.136239 28.0
524.160959 93.0
525.161689 76.0
525.175179 140.0
527.134591 30.0
527.152591 82.0
528.133671 71.0
529.156262 1822.0
530.164073 68.0
531.156993 139.0
532.157604 43.0
533.163705 361.0
534.159435 49.0
535.156136 415.0
535.176526 241.0
536.165047 157.0
536.183177 183.0
537.131787 42.0
537.156747 113.0
537.179517 122.0
539.152049 81.0
539.172559 1547.0
541.14876 69.0
541.16927 173.0
542.172441 67.0
543.158281 71.0
544.161032 58.0
545.162433 1956.0
546.162433 58.0
547.163354 982.0
548.169755 106.0
548.213335 76.0
549.163355 118.0
549.170245 222.0
551.162377 78.0
551.173847 169.0
552.163287 41.0
553.155848 479.0
553.167378 870.0
554.181609 368.0
555.173669 42.0
555.192159 130.0
557.151271 51.0
557.176661 75.0
559.157802 97.0
560.152003 53.0
560.179843 42.0
561.167993 127.0
562.173244 46.0
563.179475 1627.0
564.163235 52.0
565.157256 210.0
565.180516 689.0
566.161407 41.0
566.175387 88.0
567.178197 105.0
568.184178 288.0
569.181679 631.0
571.16062 376.0
572.170081 69.0
575.168683 36.0
577.165074 134.0
578.165755 44.0
579.174295 47.0
580.188516 33.0
581.191817 215.0
583.172528 65.0
583.193828 50.0
584.173629 51.0
585.17802 49.0
587.148911 28.0
587.177411 954.0
589.173082 134.0
590.181693 36.0
593.155505 30.0
593.193715 35.0
595.166066 125.0
598.188348 37.0
599.190239 148.0
601.17498 61.0
601.19903 43.0
602.177061 80.0
603.177492 30.0
605.190493 1299.0
611.172187 132.0
613.162108 89.0
613.186348 175.0
617.178411 96.0
617.202761 344.0
619.185432 111.0
620.202343 77.0
621.185864 87.0
623.201795 1300.0
627.189468 26.0
629.158579 68.0
629.183179 183.0
631.17018 84.0
631.18251 295.0
635.195573 98.0
635.217793 79.0
637.196984 151.0
638.144425 36.0
638.206315 217.0
639.204066 59.0
641.206807 1416.0
643.195338 22.0
645.19937 81.0
647.196501 366.0
649.196742 360.0
653.181485 37.0
655.208526 152.0
656.201877 173.0
656.214447 511.0
657.221098 58.0
659.226719 1782.0
665.198773 340.0
667.181075 81.0
667.211405 533.0
671.200237 125.0
672.210738 23.0
673.216899 523.0
674.223799 943.0
675.22636 136.0
677.198041 46.0
683.207205 127.0
683.248215 57.0
685.213617 1570.0
689.201779 129.0
703.146309 8.0
703.213809 85.0
703.229369 136.0
707.212281 151.0
725.196493 29.0
725.225543 192.0
743.238316 127.0
760.231727 39.0
761.242228 418.0
778.206839 35.0
778.247799 71.0
779.26202 7341.0
797.268562 238.0
797.293462 122.0

