>compound 
>formula C26H36O10
>parentmass 531.2200683559801
>ionization [M + Na]+
>instrumentation Unknown (LCMS)
>source file:/Users/fanzhoukong/Documents/GitHub/Libgen/data/EAD_PFP/0_unknown_/spectrum.ms
>quality UNKNOWN

>ms2peaks
50.015265 175.0
51.023476 353.0
52.030447 90.0
53.037258 132.0
55.05512 388.0
57.066981 48.0
57.070681 592.0
60.982335 68.0
62.014056 32.0
63.021767 161.0
65.037058 648.0
66.043459 79.0
67.05438 194.0
68.056821 30.0
68.999132 75.0
74.013396 15.0
75.016307 63.0
76.024258 52.0
77.038939 1229.0
78.04131 122.0
79.054511 479.0
80.051451 53.0
81.057292 43.0
83.050304 515.0
84.076545 19.0
85.064816 260.0
86.017057 29.0
87.027587 29.0
88.032998 15.0
89.040489 157.0
90.04069 36.0
91.055831 1415.0
92.057862 110.0
93.062543 111.0
94.066964 64.0
96.047835 19.0
97.055656 30.0
97.947517 18.0
102.044981 23.0
103.055861 130.0
104.063732 83.0
105.066473 285.0
106.068964 54.0
107.051895 60.0
108.073976 18.0
109.061017 43.0
111.033068 343.0
111.042358 270.0
113.00092 35.0
115.053302 557.0
116.052643 73.0
116.060033 91.0
117.069034 136.0
118.064294 86.0
118.069624 49.0
119.086225 77.0
120.076056 29.0
121.057047 67.0
123.048399 82.0
123.077739 29.0
124.04034 22.0
125.04065 17.0
126.044981 152.0
127.054422 262.0
128.062363 737.0
129.069824 310.0
130.071185 81.0
131.042756 19.0
131.071896 119.0
131.084246 96.0
133.063417 18.0
133.074727 83.0
135.082459 46.0
136.0897 18.0
137.086891 32.0
139.051783 50.0
141.067884 134.0
142.076125 107.0
143.085616 94.0
145.099938 117.0
145.969759 23.0
147.07967 26.0
147.96847 28.0
148.09601 14.0
149.071591 48.0
150.045582 67.0
151.040803 34.0
151.048033 44.0
151.056463 116.0
152.061054 705.0
153.068985 550.0
154.074166 158.0
155.041177 25.0
155.083857 220.0
156.082157 45.0
156.096857 74.0
157.071388 66.0
157.082438 86.0
157.097178 99.0
158.076039 176.0
159.07897 137.0
160.086311 30.0
161.060792 76.0
163.068613 143.0
164.047074 31.0
164.063384 100.0
165.071255 943.0
166.069576 68.0
166.080946 128.0
167.084857 328.0
168.068928 73.0
168.084168 57.0
169.090279 134.0
169.105559 52.0
170.08023 76.0
170.10706 57.0
171.07821 101.0
171.08718 158.0
172.094501 70.0
173.097072 380.0
175.039634 38.0
175.070744 38.0
175.095364 89.0
175.112224 31.0
176.061125 106.0
177.069946 54.0
177.077766 65.0
177.085586 77.0
178.080337 218.0
179.083107 407.0
180.087388 97.0
181.065469 87.0
181.077349 165.0
181.094479 138.0
182.06737 47.0
182.08852 34.0
182.11099 58.0
183.086591 96.0
184.034242 29.0
184.086072 33.0
184.106022 29.0
185.098943 122.0
186.091863 43.0
186.106553 88.0
187.099494 104.0
187.114234 166.0
188.072235 24.0
189.069046 156.0
189.081166 175.0
190.075247 127.0
191.084118 172.0
191.088168 217.0
192.091579 176.0
193.0976 150.0
193.10307 211.0
194.07626 63.0
194.09399 96.0
195.080621 4015.0
196.088952 76.0
197.094383 124.0
197.109513 217.0
198.063784 25.0
198.080324 52.0
199.101895 60.0
199.110185 264.0
200.123326 28.0
201.087626 77.0
201.104297 56.0
202.076527 357.0
203.086018 114.0
204.083999 42.0
204.095199 41.0
205.06621 37.0
205.09708 166.0
205.11391 80.0
206.097191 70.0
206.107031 71.0
207.040522 43.0
207.094072 87.0
207.111002 100.0
207.118052 53.0
208.090563 132.0
209.096523 257.0
209.112093 60.0
210.100644 42.0
210.110574 116.0
211.110005 222.0
212.084716 46.0
212.116096 39.0
213.087387 383.0
214.092438 19.0
215.095529 115.0
215.104149 153.0
216.09378 37.0
217.08713 90.0
217.11455 184.0
218.085621 65.0
219.077732 57.0
219.112522 113.0
220.096783 128.0
220.118573 42.0
221.099274 255.0
221.125494 83.0
222.104035 129.0
223.114006 271.0
224.093996 56.0
224.139457 53.0
225.084947 35.0
225.120247 152.0
226.092838 35.0
226.106098 26.0
227.092629 42.0
228.09315 33.0
229.088461 53.0
230.093362 34.0
231.085563 81.0
231.110893 69.0
232.121703 53.0
233.113794 197.0
233.124264 92.0
234.112485 38.0
235.111816 68.0
235.128336 127.0
235.149366 40.0
236.119297 124.0
237.088178 195.0
237.100248 161.0
237.144018 51.0
238.095359 55.0
238.134659 23.0
239.10768 916.0
241.096191 141.0
241.123571 163.0
242.079812 22.0
243.103613 110.0
244.089794 15.0
245.104045 49.0
245.127035 43.0
246.103476 29.0
247.112646 35.0
247.121886 104.0
247.146526 92.0
248.114637 42.0
249.089258 35.0
249.126368 123.0
250.135529 117.0
251.1141 162.0
251.12185 235.0
251.13739 211.0
253.112852 61.0
253.125322 60.0
253.134672 124.0
255.102313 311.0
257.112135 36.0
257.115285 114.0
258.123156 24.0
259.088827 32.0
259.099877 126.0
260.122698 91.0
261.117449 197.0
262.102989 16.0
262.14104 16.0
263.13329 184.0
263.1444 156.0
264.108301 22.0
264.119441 39.0
264.154471 31.0
265.102652 99.0
265.117002 291.0
265.147302 255.0
266.130823 29.0
267.136994 252.0
268.122585 19.0
269.121246 168.0
269.148586 113.0
271.125767 22.0
271.132237 28.0
271.141907 35.0
273.115049 56.0
275.118111 71.0
275.144111 188.0
276.113412 20.0
277.113802 32.0
277.128483 59.0
278.132333 90.0
279.131444 44.0
280.111035 16.0
281.059486 26.0
281.130106 39.0
281.149816 109.0
282.121407 92.0
283.104598 627.0
283.116128 677.0
284.076249 13.0
285.095899 46.0
285.128979 36.0
287.124101 26.0
289.111133 27.0
289.179433 25.0
291.133475 75.0
293.154466 834.0
295.131948 74.0
297.15661 38.0
298.116571 23.0
299.128872 39.0
299.149222 47.0
299.174642 20.0
301.116203 80.0
301.158683 52.0
302.152314 36.0
303.147585 20.0
306.124388 27.0
309.1467 330.0
311.170412 2860.0
313.145244 45.0
315.108925 32.0
315.162846 27.0
319.105479 19.0
321.152691 91.0
325.136034 27.0
325.150164 21.0
327.140456 30.0
327.161696 608.0
328.170707 17.0
329.168808 188.0
329.174118 975.0
331.155299 29.0
333.181721 29.0
335.165923 16.0
337.141595 23.0
339.150176 56.0
339.161006 57.0
341.186398 30.0
342.124359 13.0
343.1489 160.0
344.145881 24.0
345.138832 29.0
347.147313 30.0
347.185643 50.0
349.159795 32.0
351.209297 37.0
352.142528 49.0
353.139599 23.0
355.13981 41.0
358.140513 15.0
359.147904 39.0
362.275436 17.0
366.12289 17.0
367.246541 32.0
368.168882 24.0
369.162012 43.0
370.135763 15.0
371.148524 4969.0
373.121426 24.0
373.212276 16.0
375.175478 44.0
377.212339 17.0
381.172493 39.0
382.121714 22.0
382.267274 18.0
383.148845 78.0
383.219795 35.0
385.172586 40.0
387.124548 19.0
389.16456 46.0
391.223462 33.0
393.204303 37.0
395.221265 52.0
399.180688 21.0
401.22664 19.0
403.173612 25.0
405.121304 18.0
409.181397 18.0
411.185239 33.0
411.215059 38.0
413.211951 32.0
413.231841 140.0
421.147318 33.0
421.312168 8.0
427.161543 20.0
428.198804 36.0
429.204845 45.0
431.165546 240.0
431.212326 188.0
431.248946 40.0
439.172143 19.0
443.172117 25.0
447.21921 21.0
453.138765 29.0
455.224407 46.0
457.168189 40.0
459.267281 42.0
463.167774 22.0
467.156757 17.0
467.220268 24.0
468.268998 48.0
469.257369 15.0
471.186211 153.0
471.201101 844.0
473.202113 45.0
475.171074 16.0
478.281037 17.0
480.309869 18.0
481.2464 26.0
482.170931 31.0
482.261291 8.0
485.286443 21.0
487.250065 29.0
495.176922 41.0
495.222702 19.0
495.281562 26.0
496.300213 32.0
499.211405 76.0
503.255669 15.0
513.197997 64.0
513.217957 88.0
513.251218 98.0
513.333368 45.0
514.261528 47.0
515.206109 11.0
530.286082 32.0
531.222733 671.0
531.240793 1462.0
531.308483 85.0

