>compound 
>formula C23H28O11
>parentmass 481.1704427177101
>ionization [M + H]+
>instrumentation Unknown (LCMS)
>source file:/Users/fanzhoukong/Documents/GitHub/Libgen/data/EAD_PFP/0_unknown_/spectrum.ms
>quality UNKNOWN

>ms2peaks
119.08585 97.0
121.10087 198.0
126.054499 39.0
127.046319 209.0
128.060859 500.0
129.067209 199.0
130.065198 161.0
131.087218 883.0
133.066418 147.0
134.072918 225.0
135.077528 66.0
138.044747 98.0
139.067557 214.0
141.069807 287.0
142.067547 124.0
143.074656 66.0
144.081776 73.0
145.052346 228.0
146.066396 99.0
147.080456 1418.0
148.088446 30.0
149.097496 486.0
163.040654 112.0
165.083413 856.0
165.092213 1172.0
166.083023 310.0
167.116073 3434.0
167.119873 5615.0
168.078653 82.0
170.015923 98.0
173.052802 23.0
175.074172 133.0
176.058082 68.0
177.087742 44.0
178.081191 216.0
179.081351 159.0
181.014941 362.0
183.042411 86.0
185.10915 64.0
186.12747 34.0
189.06723 212.0
191.01595 238.0
191.997439 176.0
192.980089 66.0
193.099869 109.0
195.028149 101.0
197.065019 85.0
198.126728 36.0
202.077438 134.0
203.085528 96.0
203.130198 148.0
205.050287 75.0
205.110627 53.0
206.100917 116.0
207.031567 377.0
209.011047 72.0
211.128017 53.0
215.083536 70.0
217.099606 53.0
218.080796 33.0
219.096085 35.0
221.117685 150.0
225.074155 91.0
228.088194 27.0
229.087944 58.0
231.101434 53.0
233.116253 92.0
236.142843 77.0
237.090673 93.0
240.082142 36.0
245.115762 40.0
247.136741 31.0
248.151111 55.0
249.084071 147.0
251.133731 642.0
255.1002 71.0
258.01086 84.0
265.023919 164.0
266.990738 56.0
270.557698 23.0
273.103138 25.0
273.116078 551.0
275.130517 68.0
277.111587 72.0
281.053976 267.0
283.090806 144.0
283.102346 308.0
285.005996 68.0
287.005636 69.0
291.122855 2096.0
292.136615 220.0
293.145465 9817.0
298.244494 23.0
301.108784 1280.0
303.007123 38.0
309.132282 1456.0
311.140392 1399.0
311.157672 6474.0
315.070051 76.0
316.020151 23.0
317.031021 179.0
318.026041 130.0
318.039991 282.0
319.029581 341.0
327.0388 35.0
349.129827 35.0
377.122192 30.0
384.013401 24.0
391.00186 24.0
403.058749 49.0
435.287594 27.0
440.130553 24.0
445.145013 101.0
463.16061 1581.0
466.15072 53.0
473.045709 24.0
481.174637 2743.0

