>compound 
>formula C21H24O11
>parentmass 475.1210825887901
>ionization [M + Na]+
>instrumentation Unknown (LCMS)
>source file:/Users/fanzhoukong/Documents/GitHub/Libgen/data/EAD_PFP/0_unknown_/spectrum.ms
>quality UNKNOWN

>ms2peaks
127.037443 196.0
128.059704 235.0
129.070514 129.0
130.065174 151.0
131.056904 58.0
137.973356 22.0
139.051346 116.0
141.070936 146.0
143.028917 224.0
144.038247 112.0
164.055401 92.0
165.069532 568.0
166.074162 231.0
167.080592 192.0
168.083702 93.0
170.081053 72.0
173.042463 64.0
176.056744 119.0
177.066864 60.0
178.072014 152.0
179.083954 145.0
180.086915 85.0
182.069535 111.0
182.189835 147.0
185.021166 178.0
188.056956 48.0
189.067217 144.0
190.080157 149.0
191.078197 198.0
192.978717 140.0
196.111768 76.0
198.122558 56.0
201.014889 40.0
202.041219 227.0
203.14554 125.0
207.03436 155.0
210.999911 23.0
213.011092 357.0
214.021682 82.0
218.103913 63.0
226.021594 87.0
227.031575 41.0
228.082265 50.0
231.028445 269.0
232.033116 230.0
236.233167 63.0
243.029768 85.0
244.038738 151.0
246.052209 44.0
253.19645 24.0
255.029781 59.0
260.063672 67.0
262.046892 102.0
264.059952 52.0
270.016554 23.0
271.136464 23.0
273.038374 109.0
275.055775 35.0
277.067555 66.0
281.047416 35.0
281.050676 170.0
285.035757 24.0
287.047137 220.0
289.072228 122.0
291.064348 45.0
295.074119 404.0
298.04323 55.0
303.048061 73.0
305.055171 73.0
305.060291 436.0
310.251122 23.0
316.058493 74.0
317.069394 141.0
321.053734 188.0
322.063835 201.0
323.073725 1388.0
325.073575 65.0
334.064997 470.0
335.080987 398.0
337.068998 219.0
341.060909 168.0
351.061771 82.0
352.068331 1052.0
352.073851 2958.0
353.078191 190.0
354.074711 53.0
355.076362 783.0
356.745212 23.0
367.075014 836.0
374.033366 22.0
379.080387 53.0
380.002207 24.0
381.058967 66.0
384.070988 24.0
385.093028 1446.0
393.50276 24.0
397.08064 148.0
411.101093 87.0
415.073194 24.0
420.342785 24.0
421.094286 140.0
422.085926 24.0
427.098007 125.0
429.112747 147.0
439.105669 1209.0
443.09502 24.0
443.10326 76.0
445.116111 88.0
451.448352 24.0
456.106073 163.0
457.108763 5001.0
473.099027 194.0
473.109677 466.0
473.540187 186.0
474.115937 119.0
475.129667 18635.0

