>compound 
>formula C16H12O5
>parentmass 285.0757
>ionization [M + H]+
>instrumentation Unknown (LCMS)
>source file:/Users/fanzhoukong/Documents/GitHub/Libgen/data/NIST_MONA/0_unknown_/spectrum.ms
>quality UNKNOWN

>ms2peaks
67.0178 0.211017
68.9969 0.365066
79.0541 0.126307
103.0543 0.331011
105.0699 0.636176
107.0491 1.332077
111.0076 0.219542
118.0413 2.65835
119.0492 0.262599
121.0284 0.326942
123.044 7.75669
124.0155 0.890326
131.0492 0.250814
133.0647 1.694151
135.0439 0.258991
139.039 0.827665
145.065 0.182347
147.0441 0.182955
149.0233 7.750812
151.0389 0.145229
152.0104 4.242731
153.0182 4.639122
158.0362 0.772242
159.0443 0.110348
159.0803 0.161088
161.0598 0.113984
161.0959 0.203591
163.0389 0.545361
167.0338 0.272747
169.0646 0.273853
170.0209 14.401476
173.06 0.327426
179.0339 2.673567
183.0441 0.186741
183.0805 0.282028
184.0367 1.13651
186.0674 0.12555
187.0753 0.288857
192.0417 0.179809
197.0595 0.856372
199.0757 0.209149
200.0468 0.113341
201.0547 0.799872
201.0908 0.298702
211.0751 0.223824
213.0546 1.357067
214.0626 0.568288
215.0709 0.385803
216.0413 0.103582
224.0469 0.117413
225.0546 0.340021
226.0624 0.225752
229.086 14.148893
239.07 0.204196
241.049 0.486636
242.0573 7.353236
243.065 0.139262
252.0416 1.849615
253.0495 9.989699
254.056 0.110494
255.0651 0.472365
257.0808 1.191973
261.0758 0.11696
267.0646 0.208158
269.0444 6.925696
270.0522 24.169172
285.0757 100.0

