>compound 
>formula C10H12N4O5
>parentmass 269.087951660156
>ionization [M + H]+
>instrumentation Unknown (LCMS)
>source file:/Users/fanzhoukong/Documents/GitHub/Libgen/data/NIST_MONA/0_unknown_/spectrum.ms
>quality UNKNOWN

>ms2peaks
28.0163 0.42
31.0167 0.23
38.0004 0.28
39.0225 0.73
40.0161 0.72
41.0376 2.35
43.0171 6.13
45.0328 2.07
45.0433 0.64
55.0177 3.18
55.0283 17.25
55.0591 0.52
55.2445 0.23
57.0327 4.85
61.0262 0.52
65.0133 1.98
67.0283 5.62
67.4704 0.31
69.0328 2.81
71.0124 2.85
71.2054 0.21
73.0282 1.52
82.0401 21.74
82.0911 0.39
82.1019 0.22
83.0243 1.01
87.1874 0.28
89.0233 0.3
92.0241 5.11
92.1199 0.28
93.0092 1.38
94.0396 18.52
94.177 0.23
95.0262 0.29
110.035 49.97
110.0782 1.25
110.0954 0.95
110.5145 0.22
111.0354 0.54
118.9965 0.56
119.0348 35.84
119.0794 1.03
119.0965 0.6
119.3643 0.24
119.4599 0.25
120.0203 5.2
120.8851 0.22
137.046 100.0
137.2138 0.22
137.2348 0.33
137.2585 0.31
137.3632 0.31
137.4033 0.24
137.4837 0.21
137.6477 0.28
137.8724 0.32
137.9333 0.23
138.0516 0.81
138.4318 0.27
139.432 0.29
156.9543 0.3
160.8825 0.54

