>compound 
>formula C10H12O4
>parentmass 197.08083986504
>ionization [M + H]+
>instrumentation Unknown (LCMS)
>source file:/Users/fanzhoukong/Documents/GitHub/Libgen/data/EAD_PFP/0_unknown_/spectrum.ms
>quality UNKNOWN

>ms2peaks
50.014066 101.0
50.016146 104.0
51.022265 463.0
52.031334 90.0
53.036013 102.0
53.038153 628.0
55.018232 1378.0
57.03237 81.0
57.07085 18.0
63.021915 54.0
64.034604 27.0
64.828803 33.0
65.040353 4183.0
65.832793 51.0
66.053152 4713.0
66.546102 42.0
66.820482 15.0
66.838902 23.0
67.059331 3954.0
67.589021 33.0
67.688121 17.0
68.018161 18.0
68.4049 19.0
68.99926 3538.0
70.956128 40.0
71.045278 13.0
71.052708 18.0
72.936176 44.0
74.012666 10.0
75.026595 22.0
76.028634 37.0
77.038183 2366.0
78.043132 37.0
79.055471 566.0
80.02525 17.0
81.0318 218.0
81.04327 97.0
82.033109 24.0
82.041099 22.0
83.049488 168.0
84.080217 14.0
85.061276 26.0
89.038703 35.0
91.054021 481.0
92.05979 29.0
93.033299 182.0
93.739509 17.0
94.043269 4482.0
94.749478 24.0
95.051048 4482.0
96.001797 14.0
97.065346 29.0
99.079314 15.0
102.045992 13.0
103.058871 39.0
105.034349 66.0
105.054429 115.0
105.071499 92.0
106.040728 75.0
106.056868 51.0
107.049878 1639.0
108.022047 15.0
108.061767 19.0
109.030326 193.0
110.033015 66.0
110.037125 312.0
110.997974 12.0
111.046484 60.0
112.997793 20.0
115.049081 46.0
115.064841 41.0
116.05579 17.0
116.06107 23.0
117.056289 29.0
117.064769 50.0
118.068528 18.0
119.065887 23.0
119.086197 58.0
120.025577 20.0
121.024686 125.0
121.028996 1156.0
121.637585 31.0
122.037665 8147.0
122.663974 31.0
123.045094 4197.0
124.010843 29.0
124.051213 25.0
125.061422 1060.0
126.047131 19.0
127.057691 52.0
127.069831 27.0
128.05454 37.0
128.06452 56.0
129.059739 20.0
129.070869 14.0
130.059938 20.0
131.057267 23.0
132.080916 17.0
133.029456 99.0
133.053175 46.0
134.042605 19.0
135.052784 36.0
135.074414 104.0
135.088074 80.0
137.055842 32.0
137.126952 18.0
138.98701 18.0
139.04477 24.0
140.04808 55.0
141.046839 14.0
141.059639 24.0
143.081997 14.0
146.095134 17.0
147.967173 13.0
150.033461 2158.0
150.527031 69.0
150.552261 233.0
150.573921 62.0
150.78435 16.0
151.04428 20499.0
152.002949 278.0
152.022279 824.0
152.054889 153.0
156.091806 17.0
159.313673 176.0
160.710212 451.0
161.446251 1133.0
162.326221 1445.0
169.050615 855.0
179.067176 62.0
179.076346 110.0
193.878174 50.0
196.112012 28.0
197.076241 52.0
197.078991 75.0

