>compound 
>formula C30H34O18
>parentmass 683.18179524808
>ionization [M + H]+
>instrumentation Unknown (LCMS)
>source file:/Users/fanzhoukong/Documents/GitHub/Libgen/data/EAD_PFP/0_unknown_/spectrum.ms
>quality UNKNOWN

>ms2peaks
50.012086 125.0
51.02028 411.0
52.027944 118.0
53.036888 237.0
54.035363 41.0
55.050417 153.0
56.049241 47.0
57.031145 55.0
57.933559 24.0
60.982061 37.0
61.026441 20.0
62.014565 45.0
63.022289 287.0
64.027954 30.0
65.037618 1042.0
66.041652 101.0
67.051766 152.0
68.05016 46.0
68.993254 141.0
70.064968 15.0
71.048292 75.0
73.043881 22.0
74.013265 36.0
75.011099 57.0
76.018173 30.0
76.029283 104.0
77.037987 1092.0
78.042091 248.0
79.053565 439.0
80.047009 106.0
81.033424 123.0
82.068478 40.0
83.048482 82.0
85.02595 313.0
86.013414 40.0
87.019378 22.0
88.029342 31.0
89.037746 336.0
90.044451 53.0
91.052145 1362.0
92.057919 139.0
93.058833 111.0
93.064503 109.0
94.063247 78.0
95.012891 30.0
95.052051 36.0
95.952915 26.0
97.023919 46.0
97.949573 23.0
99.017987 19.0
100.111812 20.0
101.035296 15.0
102.04416 103.0
103.045094 179.0
104.045928 54.0
105.035532 21.0
105.064652 109.0
106.067146 55.0
107.05616 88.0
108.071145 23.0
109.026469 79.0
110.071283 29.0
111.003387 50.0
111.038487 26.0
113.003275 54.0
113.023065 22.0
113.038685 37.0
115.054643 469.0
116.058227 102.0
117.058742 137.0
118.058226 76.0
119.06838 59.0
119.08335 55.0
120.078544 48.0
121.026138 48.0
121.066018 39.0
122.036982 22.0
123.008556 29.0
123.043326 22.0
126.047569 39.0
126.902492 22.0
127.042683 189.0
128.062767 303.0
129.047981 57.0
129.056901 268.0
130.063785 88.0
130.990479 30.0
131.054399 41.0
131.080209 25.0
132.026273 36.0
132.081433 23.0
133.052577 37.0
133.079697 53.0
134.037481 31.0
135.044246 51.0
137.052974 19.0
139.049982 42.0
140.049846 46.0
141.06493 138.0
142.063814 48.0
143.063878 28.0
143.076779 44.0
144.082763 64.0
145.046247 82.0
145.068667 52.0
145.96915 30.0
146.036631 37.0
147.054115 21.0
147.062435 101.0
147.067175 125.0
147.961929 17.0
149.025563 31.0
150.041407 41.0
151.039031 134.0
152.059275 125.0
153.05751 38.0
153.06479 112.0
154.066304 33.0
154.069954 88.0
155.067438 90.0
155.077188 67.0
156.080382 78.0
157.047506 46.0
157.079446 26.0
158.0903 42.0
159.061144 16.0
159.103144 34.0
160.104369 28.0
161.107503 20.0
162.033926 30.0
162.9993 20.0
163.041821 20.0
163.055591 85.0
164.061615 43.0
165.069499 115.0
166.069093 93.0
166.994457 22.0
167.071697 72.0
168.003671 28.0
168.078591 33.0
169.012095 53.0
169.024835 232.0
169.033745 136.0
170.09125 31.0
171.041843 26.0
172.112018 16.0
173.042472 36.0
174.130526 17.0
175.05474 26.0
176.050274 25.0
177.053848 62.0
178.072032 27.0
178.075972 63.0
179.032876 21.0
180.065931 25.0
180.081701 45.0
181.024194 27.0
181.057145 68.0
182.093389 24.0
183.066293 34.0
184.049787 19.0
186.031325 31.0
187.048179 36.0
187.058909 368.0
188.058403 13.0
189.075398 94.0
190.073502 36.0
191.001155 41.0
191.053946 34.0
191.074256 13.0
192.06949 23.0
192.09257 41.0
192.984264 60.0
193.979008 29.0
195.066582 72.0
195.084362 24.0
196.109176 16.0
199.033819 34.0
201.062287 28.0
202.077601 32.0
203.031265 16.0
203.142945 21.0
204.079499 22.0
205.071503 445.0
206.088448 15.0
207.030351 89.0
207.057141 47.0
208.029515 37.0
209.02401 22.0
209.07641 18.0
210.016594 35.0
211.123958 14.0
213.011346 22.0
213.075686 74.0
215.042124 91.0
216.041688 81.0
217.047903 35.0
217.083973 13.0
219.057191 26.0
219.073141 41.0
221.116529 34.0
225.037725 20.0
227.034874 25.0
229.023032 36.0
229.063072 82.0
229.076412 25.0
230.093186 22.0
231.08094 61.0
232.036474 20.0
232.099164 16.0
233.040338 48.0
233.049318 85.0
235.023046 14.0
237.075975 227.0
239.083323 16.0
243.027139 61.0
244.036113 85.0
245.048718 141.0
247.081746 53.0
251.005362 19.0
251.098503 18.0
255.083489 119.0
257.046127 32.0
258.049131 55.0
259.068295 32.0
260.034179 75.0
261.038273 211.0
262.047438 17.0
265.01812 35.0
267.000918 31.0
268.010322 24.0
269.044136 23.0
271.022564 27.0
272.031489 73.0
273.038993 188.0
274.050017 33.0
275.056401 78.0
277.081249 20.0
281.052976 98.0
282.05405 34.0
283.051944 24.0
285.038102 35.0
286.047896 30.0
287.05282 73.0
288.026234 19.0
289.036318 171.0
290.039793 45.0
297.097662 114.0
299.018929 39.0
300.027694 142.0
301.038168 451.0
302.043542 41.0
303.048856 487.0
304.05929 47.0
313.036287 38.0
314.035411 30.0
314.052771 36.0
315.053545 45.0
315.107436 123.0
316.021039 36.0
317.030173 90.0
318.037408 356.0
329.064253 37.0
330.038807 33.0
331.037951 310.0
331.046861 870.0
332.060055 2872.0
333.062249 3654.0
334.712676 17.0
341.065552 51.0
345.048259 40.0
345.060989 50.0
346.068043 52.0
351.130774 28.0
357.057258 15.0
358.068672 35.0
359.077796 113.0
361.059374 27.0
367.078109 8.0
369.055257 17.0
371.077336 23.0
374.064928 15.0
375.073562 105.0
379.175139 18.0
381.060217 17.0
382.070601 19.0
387.071171 27.0
399.058041 17.0
399.069791 42.0
401.082119 44.0
405.086505 28.0
412.074414 13.0
417.082895 13.0
418.091839 19.0
429.063594 16.0
441.071973 8.0
441.080183 21.0
443.092552 15.0
447.089608 21.0
477.108771 31.0
479.11156 30.0
501.10985 12.0
518.10204 17.0
519.117124 37.0
521.143502 23.0
537.103888 50.0
537.124338 1452.0
565.119453 20.0
625.14716 9.0
641.826858 6.0
682.185844 18.0
683.166138 264.0
683.181518 3753.0

