>compound 
>formula C25H26O10
>parentmass 487.15987803368
>ionization [M + H]+
>instrumentation Unknown (LCMS)
>source file:/Users/fanzhoukong/Documents/GitHub/Libgen/data/EAD_PFP/0_unknown_/spectrum.ms
>quality UNKNOWN

>ms2peaks
50.01531 257.0
51.022808 519.0
52.031177 125.0
53.037986 78.0
55.055114 205.0
60.985327 26.0
61.029707 53.0
62.012436 56.0
63.022455 173.0
65.036953 11.0
65.040113 869.0
66.047322 77.0
67.051041 194.0
68.994109 153.0
69.070609 40.0
74.015733 23.0
75.021192 50.0
76.028321 78.0
77.0413 753.0
78.043669 173.0
79.054268 314.0
80.052076 42.0
81.067615 136.0
85.033801 39.0
88.023488 21.0
89.039227 357.0
91.057344 1509.0
92.057503 284.0
93.065002 115.0
94.066591 65.0
95.085 104.0
96.078159 25.0
97.034988 73.0
100.006384 30.0
101.038643 29.0
102.043542 61.0
103.052421 177.0
104.04728 71.0
105.067999 173.0
106.066468 53.0
107.082827 48.0
109.101434 25.0
113.00247 64.0
114.040989 44.0
115.053798 694.0
116.060527 144.0
117.070576 146.0
118.061585 35.0
119.081363 130.0
120.085122 34.0
123.045599 29.0
123.104289 74.0
126.046536 65.0
127.055985 122.0
128.062804 297.0
129.069152 106.0
130.066021 220.0
131.08018 121.0
132.063399 78.0
132.082549 40.0
133.077408 67.0
133.103408 93.0
134.073727 28.0
135.099966 54.0
137.096474 24.0
139.054491 91.0
140.05899 64.0
141.071759 161.0
142.065998 125.0
142.075348 64.0
143.066067 84.0
143.084827 139.0
144.068476 59.0
144.081406 247.0
145.063745 35.0
145.080275 155.0
145.095605 62.0
146.071924 22.0
150.051949 31.0
151.059228 72.0
152.063837 239.0
154.067215 75.0
155.075674 85.0
157.106091 64.0
160.110198 33.0
161.094677 76.0
163.057675 187.0
164.058674 90.0
165.070303 534.0
166.062322 42.0
166.076212 111.0
167.068701 65.0
167.07883 107.0
168.083189 187.0
169.072738 126.0
169.079098 132.0
170.088177 118.0
171.043896 76.0
171.088726 71.0
171.115646 44.0
172.051095 46.0
173.081894 101.0
173.132134 55.0
175.113792 60.0
175.143612 90.0
176.067891 158.0
177.068899 60.0
177.121059 38.0
177.149729 44.0
177.164089 80.0
178.079288 267.0
179.079447 92.0
181.067055 109.0
181.093415 34.0
182.059684 38.0
182.082154 59.0
183.076233 67.0
183.092153 57.0
184.082322 72.0
185.065861 58.0
185.109831 241.0
186.11214 254.0
187.146638 159.0
187.149308 201.0
188.060377 52.0
188.096627 39.0
189.071956 507.0
190.076825 127.0
191.082974 123.0
192.063283 78.0
192.980762 55.0
193.077402 53.0
193.086932 50.0
194.065531 37.0
195.08219 63.0
196.087789 45.0
197.062947 73.0
198.073626 38.0
199.082735 84.0
199.091015 43.0
200.059764 68.0
201.096143 101.0
201.165613 107.0
202.075312 466.0
203.090371 114.0
203.142021 109.0
203.150401 107.0
205.062169 69.0
205.114079 160.0
205.163189 147.0
206.074848 76.0
207.050546 131.0
207.078736 91.0
207.091416 65.0
208.034195 23.0
208.104865 38.0
209.061254 26.0
209.078254 62.0
210.093673 40.0
211.087392 69.0
212.076291 37.0
212.087711 51.0
213.09897 521.0
214.105469 236.0
215.084168 231.0
216.073736 44.0
216.095346 42.0
217.101675 47.0
218.078514 145.0
219.073493 26.0
219.083643 280.0
219.175013 24.0
220.088172 44.0
221.064431 140.0
221.096461 37.0
221.156191 24.0
222.06327 38.0
223.078979 36.0
224.085298 31.0
225.051257 40.0
225.076237 114.0
226.079685 145.0
227.079434 77.0
227.098634 34.0
228.096193 97.0
229.072232 69.0
229.164162 72.0
230.074121 69.0
231.08267 251.0
232.093419 41.0
233.058528 62.0
233.086938 47.0
234.075077 85.0
235.075826 136.0
236.086234 31.0
237.056563 298.0
238.065172 33.0
239.066831 77.0
239.080461 186.0
240.0797 25.0
241.055159 105.0
241.082529 120.0
242.069178 68.0
243.045607 21.0
243.080727 59.0
243.103647 50.0
244.088286 76.0
245.094854 89.0
245.105604 46.0
246.066613 41.0
247.077242 317.0
247.165012 90.0
249.06453 61.0
249.08617 123.0
250.064259 191.0
251.073748 172.0
252.089917 77.0
253.055196 123.0
254.064435 74.0
255.063203 45.0
255.078843 170.0
256.109372 339.0
257.107391 279.0
259.079339 118.0
260.059468 36.0
260.076838 30.0
261.058827 140.0
261.084157 77.0
261.103167 66.0
262.066456 72.0
263.074455 361.0
264.077994 138.0
265.053152 119.0
265.069112 45.0
265.088242 87.0
266.062061 143.0
267.04247 59.0
267.06648 200.0
268.103289 32.0
269.103528 69.0
271.077316 131.0
272.084695 47.0
273.092294 204.0
274.057993 60.0
275.070901 326.0
276.07752 248.0
277.068059 140.0
277.082709 245.0
277.090889 356.0
278.052188 113.0
278.065248 155.0
279.067507 479.0
279.075687 310.0
280.076506 425.0
281.077455 512.0
282.065364 59.0
283.053373 38.0
283.066583 70.0
283.081393 86.0
284.069542 38.0
285.05279 22.0
285.09082 58.0
286.062589 61.0
286.095729 22.0
287.074178 209.0
288.079217 137.0
289.086016 133.0
290.066215 79.0
290.094595 79.0
291.069814 258.0
291.084854 437.0
292.075153 458.0
293.083882 2054.0
294.08595 296.0
295.094769 84.0
296.068248 62.0
297.085527 115.0
298.075816 27.0
299.071115 44.0
300.081674 129.0
301.085423 367.0
302.094242 84.0
303.057011 77.0
303.074071 209.0
304.075989 252.0
305.082978 1607.0
306.089907 243.0
307.064176 114.0
307.081336 355.0
308.065765 63.0
309.079314 60.0
310.079013 32.0
311.066522 117.0
312.074611 20.0
313.08956 207.0
314.093988 58.0
315.086087 159.0
316.078056 73.0
317.088985 337.0
318.085834 207.0
319.096483 3490.0
320.075432 182.0
320.080702 273.0
321.082231 667.0
322.08531 347.0
323.089978 68.0
324.092667 42.0
324.103257 37.0
325.086316 115.0
326.088545 32.0
327.102974 91.0
328.071053 45.0
329.083232 265.0
330.088051 363.0
331.09617 1050.0
332.104069 139.0
333.088447 113.0
333.102757 106.0
334.085056 45.0
335.092105 102.0
336.098844 271.0
337.080143 30.0
338.079102 44.0
338.089902 66.0
339.088531 112.0
340.09405 71.0
341.086569 38.0
341.108299 59.0
341.119139 56.0
342.095058 44.0
343.101376 1401.0
345.091204 75.0
345.109394 261.0
346.089163 101.0
347.090412 462.0
348.098561 291.0
349.09172 135.0
349.11186 239.0
350.117449 75.0
351.102488 39.0
352.110946 57.0
353.085855 16.0
355.089613 39.0
356.088972 78.0
357.082341 41.0
358.09009 346.0
359.115939 195.0
361.092017 90.0
361.103187 239.0
363.118314 28.0
364.093413 70.0
365.103512 648.0
366.081231 200.0
367.08658 247.0
368.097039 66.0
369.099478 81.0
369.114558 117.0
371.093376 287.0
373.107773 177.0
374.111322 32.0
375.085861 51.0
376.09017 385.0
377.105359 182.0
377.324139 40.0
379.111187 30.0
382.092543 28.0
382.113623 60.0
383.117682 105.0
384.123081 48.0
385.10673 61.0
387.120218 284.0
388.103827 64.0
389.102236 247.0
391.118343 106.0
392.093442 34.0
393.098901 87.0
394.10757 78.0
395.113639 156.0
395.337639 100.0
396.124908 34.0
397.104277 24.0
405.130628 454.0
406.101307 64.0
407.112686 269.0
409.131294 1446.0
410.098823 54.0
415.115267 180.0
423.149408 2850.0
424.155547 41.0
425.152796 109.0
427.138634 167.0
433.119887 100.0
433.128037 462.0
434.139876 20.0
441.319408 50.0
441.344088 274.0
441.364688 70.0
443.319946 20.0
450.129788 47.0
451.140437 3037.0
467.602849 22.0
468.147439 70.0
469.150517 5930.0
487.145438 78.0
487.173568 350.0
487.201678 457.0
487.225448 368.0
487.247087 381.0
487.273027 137.0

