>compound 
>formula C20H22O6
>parentmass 359.14891942648
>ionization [M + H]+
>instrumentation Unknown (LCMS)
>source file:/Users/fanzhoukong/Documents/GitHub/Libgen/data/EAD_PFP/0_unknown_/spectrum.ms
>quality UNKNOWN

>ms2peaks
126.048458 167.0
127.055709 340.0
128.06476 1452.0
129.070001 460.0
130.066882 80.0
131.049663 1035.0
132.057523 202.0
133.027434 189.0
137.064118 4231.0
139.05427 453.0
141.070381 207.0
143.050623 110.0
144.056494 776.0
145.068265 69.0
157.062945 68.0
160.051778 509.0
161.058449 117.0
162.064559 64.0
163.055 272.0
163.06001 450.0
163.06877 251.0
164.062281 388.0
165.072672 1830.0
166.072283 208.0
167.053364 224.0
167.074894 235.0
167.083744 132.0
168.057645 783.0
169.064956 474.0
170.075276 129.0
171.065537 183.0
171.080917 335.0
172.053528 1681.0
173.061129 288.0
174.0665 1627.0
175.078671 2538.0
176.062572 1021.0
177.059652 344.0
177.068793 1144.0
178.079183 1035.0
179.075404 758.0
180.058625 70.0
180.077025 166.0
181.064316 1255.0
182.071467 259.0
183.045658 394.0
184.056979 2349.0
185.060429 399.0
186.06929 60.0
187.080871 6062.0
188.076422 341.0
188.083122 443.0
189.084003 5080.0
190.076744 507.0
191.086965 1032.0
192.061846 126.0
193.062366 139.0
194.077747 295.0
195.084868 247.0
196.053429 588.0
197.06152 1247.0
198.068051 489.0
199.075772 1006.0
200.073572 460.0
201.076663 743.0
202.076674 1847.0
203.086155 2153.0
204.071546 162.0
205.066347 1405.0
206.076218 523.0
207.081529 381.0
208.090699 218.0
209.05274 124.0
210.070941 437.0
211.081692 1859.0
212.047753 3355.0
213.058924 307.0
215.082725 273.0
216.096786 81.0
217.088677 1839.0
218.072738 765.0
219.080769 1871.0
220.09255 538.0
221.060071 471.0
221.068801 445.0
221.097951 149.0
222.069122 329.0
223.071692 220.0
224.083863 210.0
225.068914 543.0
226.067925 570.0
227.072086 5759.0
228.069607 109.0
228.082927 179.0
230.072669 76.0
231.082709 3412.0
232.0905 509.0
233.081001 518.0
233.094461 500.0
234.067642 884.0
235.080383 1081.0
236.086284 407.0
237.094345 671.0
238.074315 154.0
239.068426 1414.0
240.078247 1461.0
241.088698 1401.0
242.067719 50.0
243.07776 105.0
243.09916 113.0
245.094952 241.0
246.074392 110.0
247.075803 1857.0
248.082334 1699.0
249.092445 937.0
250.064356 386.0
251.106447 1393.0
252.080698 162.0
253.078668 232.0
253.094248 488.0
254.089539 111.0
255.06799 5398.0
256.073431 1002.0
258.069733 110.0
259.077914 1229.0
260.084875 632.0
261.090615 1207.0
262.071356 92.0
262.103066 293.0
263.106357 4932.0
264.079748 721.0
265.085219 1157.0
266.06861 109.0
267.103461 262.0
268.072951 341.0
269.081192 539.0
270.094493 5523.0
271.098434 3390.0
273.089246 180.0
275.071058 212.0
275.097068 183.0
276.079338 1911.0
277.086169 1345.0
278.07686 172.0
278.09646 227.0
279.103691 2667.0
280.111102 289.0
281.074363 248.0
281.089133 271.0
281.121973 155.0
282.086964 163.0
283.096435 2121.0
285.110896 128.0
289.08292 65.0
290.094821 230.0
291.105131 4571.0
292.110532 1354.0
293.089113 765.0
294.086154 309.0
295.100045 647.0
296.105566 994.0
297.117837 752.0
305.117444 426.0
307.095325 298.0
308.107286 1087.0
309.110617 384.0
310.115528 119.0
311.130729 2118.0
313.126241 84.0
321.110628 105.0
323.127259 5684.0
341.139415 425.0
359.170191 58.0

