>compound 
>formula C16H22O9
>parentmass 376.1602032851901
>ionization [M + H3N + H]+
>instrumentation Unknown (LCMS)
>source file:/Users/fanzhoukong/Documents/GitHub/Libgen/data/EAD_PFP/0_unknown_/spectrum.ms
>quality UNKNOWN

>ms2peaks
50.015587 266.0
51.023107 729.0
52.030068 150.0
53.039738 791.0
55.020588 2287.0
55.024218 3251.0
55.577878 12.0
56.660309 43.0
57.034049 114.0
59.013679 59.0
60.016539 34.0
61.00719 12.0
61.02939 133.0
62.01367 29.0
63.02293 215.0
64.0278 39.0
65.03903 1796.0
66.046251 2106.0
67.053181 551.0
68.998731 159.0
69.018261 301.0
71.017502 60.0
73.026032 98.0
74.017202 32.0
75.015903 46.0
75.022683 59.0
76.034103 66.0
77.042823 1533.0
78.046953 1172.0
79.054963 1987.0
80.047524 10.0
80.054534 148.0
81.067454 835.0
82.058334 68.0
82.071644 7.0
83.085594 13.0
85.028245 1160.0
87.044525 34.0
89.033585 44.0
89.037275 352.0
90.045836 231.0
91.055396 2208.0
92.055536 138.0
93.065876 175.0
93.071546 152.0
94.042777 1021.0
95.049597 419.0
96.060827 26.0
97.026257 372.0
98.094477 19.0
99.044698 105.0
100.063188 35.0
101.041578 20.0
102.047488 118.0
103.055408 313.0
104.051279 33.0
104.061279 42.0
105.037889 201.0
105.057969 279.0
106.047309 36.0
107.050409 769.0
108.060269 543.0
109.06361 1531.0
110.03768 68.0
111.0006 18.0
113.024401 30.0
114.037921 10.0
115.053871 421.0
116.043721 28.0
116.061661 47.0
117.065361 106.0
118.038262 80.0
119.050462 695.0
120.055172 124.0
120.078782 57.0
121.066252 1564.0
122.070762 119.0
123.041383 74.0
124.048573 228.0
124.054023 335.0
125.057673 116.0
125.060963 466.0
126.055473 31.0
127.043983 515.0
128.059634 262.0
129.070424 82.0
131.050084 95.0
131.082614 40.0
132.015165 31.0
132.056825 46.0
133.021085 50.0
133.062895 71.0
133.065155 161.0
134.037625 27.0
134.071655 34.0
135.044375 918.0
136.043455 119.0
136.057165 810.0
136.600486 96.0
136.616506 60.0
136.713836 13.0
137.065726 15708.0
138.012396 150.0
138.063026 85.0
138.074546 68.0
139.051246 46.0
139.759116 9.0
141.062706 101.0
141.070836 27.0
142.079087 13.0
143.086227 30.0
144.060487 28.0
144.079307 21.0
145.054567 537.0
146.031937 28.0
146.050888 63.0
147.062488 99.0
148.051348 38.0
149.060288 1898.0
150.064248 1900.0
151.075169 659.0
152.064119 40.0
153.061159 39.0
153.085389 16.0
156.07426 8.0
157.89078 38.0
158.10383 26.0
159.04629 25.0
160.04981 35.0
161.061451 919.0
162.070041 142.0
162.083781 46.0
163.043011 65.0
163.058021 112.0
163.069281 198.0
164.049001 70.0
164.080371 27.0
165.054312 39.0
165.068152 152.0
166.070272 44.0
167.072872 41.0
167.079222 32.0
168.055642 22.0
168.068342 52.0
168.924122 15.0
169.065502 21.0
169.102422 55.0
170.078363 28.0
171.084013 22.0
171.094263 44.0
172.050223 17.0
173.047513 26.0
173.064253 30.0
174.065763 25.0
175.076624 548.0
176.069624 52.0
176.081324 53.0
176.145034 15.0
177.053694 401.0
178.062744 1988.0
178.476054 96.0
179.075954 9094.0
180.088105 224.0
181.072785 40.0
181.279795 34.0
182.192345 39.0
183.079355 63.0
189.058987 22.0
189.089967 31.0
190.074617 30.0
191.069947 471.0
191.997287 8.0
195.101868 11.0
196.075958 157.0
196.425898 37.0
196.451998 23.0
197.088238 9435.0
198.093458 37.0
198.878759 51.0
199.074979 110.0
201.055019 16.0
202.074489 32.0
203.06999 771.0
204.02738 39.0
205.0894 19.0
206.05574 31.0
207.03563 55.0
209.030701 14.0
209.080261 54.0
210.994071 17.0
213.091002 23.0
214.081732 40.0
215.067572 50.0
215.077612 58.0
217.084992 135.0
219.056733 32.0
219.081393 34.0
220.071403 23.0
221.081103 101.0
225.049004 35.0
225.078394 41.0
225.581284 8.0
227.071265 128.0
229.089235 35.0
231.102725 16.0
233.086156 38.0
235.066036 15.0
235.129116 15.0
236.433277 24.0
237.069357 8.0
239.088787 29.0
239.355447 9.0
242.095848 30.0
243.118158 8.0
245.081828 308.0
246.118109 13.0
248.989569 14.0
255.114091 36.0
256.619951 24.0
258.090921 21.0
259.097521 36.0
261.081832 36.0
263.086412 88.0
269.686444 8.0
273.077014 34.0
275.091295 22.0
281.043876 25.0
281.060316 12.0
283.046096 9.0
287.091727 140.0
305.102841 110.0
310.119772 24.0
316.126153 13.0
323.117515 16.0
354.909972 8.0
376.180796 95.0

