>compound 
>formula C13H18O7
>parentmass 309.09447391713
>ionization [M + Na]+
>instrumentation Unknown (LCMS)
>source file:/Users/fanzhoukong/Documents/GitHub/Libgen/data/EAD_PFP/0_unknown_/spectrum.ms
>quality UNKNOWN

>ms2peaks
50.015175 80.0
51.024772 241.0
52.02397 45.0
53.039977 78.0
55.054233 342.0
57.069018 186.0
58.066465 38.0
59.048473 478.0
60.082741 78.0
61.005808 23.0
62.016886 67.0
63.023823 208.0
64.031041 40.0
65.039129 1592.0
66.042346 58.0
67.057264 264.0
68.046781 38.0
68.994709 91.0
69.069589 313.0
71.050554 92.0
73.026869 36.0
74.014657 27.0
75.022665 141.0
76.032352 90.0
77.04106 813.0
78.043427 97.0
79.054025 524.0
80.054463 127.0
81.07089 552.0
83.085485 207.0
85.031731 107.0
87.023356 22.0
89.033411 38.0
89.038031 244.0
90.046579 99.0
91.056136 1758.0
92.058164 81.0
93.071331 159.0
94.039699 42.0
94.068199 14.0
95.085666 572.0
97.086812 107.0
99.081487 124.0
102.0472 54.0
103.056097 254.0
105.066683 69.0
105.069692 210.0
106.05202 35.0
106.06816 49.0
107.086558 427.0
109.101113 302.0
111.078668 105.0
111.096228 127.0
113.003173 21.0
113.057333 18.0
115.055559 369.0
116.040126 55.0
116.058076 44.0
117.061754 94.0
118.041021 96.0
118.059111 52.0
119.050009 794.0
120.067596 38.0
121.095974 61.0
121.101364 280.0
122.074612 22.0
123.077849 65.0
123.096319 89.0
123.119149 236.0
124.094997 33.0
125.094424 68.0
126.046162 68.0
127.04236 103.0
127.0523 141.0
128.061327 405.0
129.058765 111.0
130.060052 27.0
130.068992 51.0
131.063 80.0
131.08656 138.0
132.017998 29.0
132.073158 46.0
133.064595 43.0
133.100755 118.0
135.11096 200.0
135.1178 110.0
136.082848 7.0
137.100676 81.0
137.132796 179.0
139.109561 49.0
140.049339 22.0
141.069046 104.0
142.080774 42.0
143.069191 91.0
144.078649 24.0
145.088126 77.0
147.040442 117.0
147.046372 1568.0
147.96606 26.0
149.113417 118.0
149.128967 187.0
149.136147 129.0
151.051592 96.0
151.055202 92.0
151.111792 37.0
152.06099 230.0
153.072557 126.0
154.076535 66.0
155.047183 13.0
155.061822 55.0
155.087442 58.0
156.07595 76.0
156.09065 29.0
157.078668 85.0
157.095868 109.0
158.099375 26.0
159.081343 28.0
159.099883 74.0
159.118423 39.0
160.05894 24.0
160.08621 33.0
160.0986 37.0
160.11472 15.0
161.095488 143.0
161.111648 112.0
162.021876 22.0
162.034346 25.0
162.122886 26.0
163.037213 47.0
163.111013 141.0
163.146053 80.0
164.050711 43.0
165.057288 105.0
165.064818 300.0
165.078678 193.0
166.065656 52.0
166.082076 54.0
167.073314 67.0
167.083454 94.0
168.053541 38.0
168.085291 59.0
169.079939 56.0
169.102869 41.0
170.092856 32.0
171.090854 100.0
171.116474 106.0
172.051932 17.0
172.111042 20.0
173.051789 278.0
173.131699 99.0
175.053704 28.0
175.106854 43.0
175.126294 64.0
175.145744 54.0
177.05541 47.0
177.162309 68.0
178.073597 116.0
179.082905 65.0
179.114385 33.0
180.042492 61.0
180.056962 33.0
180.577881 62.0
181.05735 58.0
181.08767 87.0
182.094908 28.0
183.089025 58.0
184.067233 39.0
184.088503 39.0
184.557982 17.0
185.0907 32.0
185.13069 70.0
186.098298 8.0
187.048336 34.0
187.120675 41.0
187.148835 57.0
188.053173 36.0
189.051281 61.0
189.089001 47.0
189.129421 68.0
190.070928 37.0
191.003956 45.0
191.142096 42.0
192.978921 129.0
193.007501 30.0
193.124551 101.0
193.977719 40.0
194.059599 74.0
195.077596 24.0
195.096746 53.0
195.118646 30.0
196.096884 47.0
197.083092 22.0
197.116091 26.0
197.127091 17.0
199.114027 136.0
199.147197 48.0
201.056752 21.0
201.091482 24.0
202.05672 22.0
202.587608 230.0
203.173647 56.0
204.069685 67.0
204.078085 149.0
205.089722 36.0
205.162692 31.0
206.0645 23.0
206.08841 15.0
206.559799 27.0
207.033118 89.0
207.050048 82.0
207.086698 37.0
208.033695 44.0
208.114235 20.0
209.110323 35.0
209.128743 31.0
211.145238 28.0
212.553954 35.0
213.118483 25.0
213.129913 34.0
213.164243 25.0
215.087968 43.0
215.142568 27.0
216.091956 20.0
217.164673 27.0
218.054851 51.0
218.093921 28.0
219.062819 68.0
219.133879 19.0
221.071194 25.0
221.091574 26.0
221.141104 41.0
223.050659 53.0
223.060919 185.0
225.074234 86.0
227.174869 48.0
227.182239 178.0
228.070517 39.0
229.088005 19.0
231.07916 51.0
231.10745 39.0
231.13724 63.0
232.070488 22.0
232.124237 25.0
233.078915 29.0
233.569724 18.0
234.067043 41.0
235.10681 52.0
237.089206 23.0
237.161615 53.0
238.156823 29.0
239.19203 8.0
241.075906 52.0
243.057281 18.0
243.206971 14.0
245.187856 315.0
246.106014 17.0
247.176791 30.0
249.079437 63.0
250.085384 601.0
250.581373 96.0
251.091812 140.0
251.181852 26.0
253.196467 28.0
255.173722 69.0
257.102127 39.0
259.078773 21.0
259.165503 15.0
260.06678 18.0
261.075688 31.0
261.252998 22.0
263.196223 88.0
265.019098 29.0
265.173818 26.0
266.139796 24.0
268.061021 20.0
268.995279 16.0
271.128334 32.0
273.187259 689.0
275.088194 195.0
277.090299 25.0
278.252557 8.0
279.269884 46.0
279.617053 73.0
280.120162 30.0
281.04894 77.0
282.048318 25.0
282.068068 29.0
283.041275 43.0
289.18203 8.0
291.085926 31.0
291.189566 227.0
291.209616 70.0
292.123093 22.0
307.125347 22.0
309.151043 264.0
309.175152 663.0
309.225132 172.0

