>compound 
>formula C8H11NO2
>parentmass 171.11279959809997
>ionization [M + H3N + H]+
>instrumentation Unknown (LCMS)
>source file:/Users/fanzhoukong/Documents/GitHub/Libgen/data/EAD_PFP/0_unknown_/spectrum.ms
>quality UNKNOWN

>ms2peaks
50.011957 62.0
51.021556 222.0
52.027825 29.0
53.036774 69.0
54.030934 12.0
55.051773 784.0
55.932591 7.0
56.054282 9.0
56.9608 21.0
57.066581 36.0
57.931989 13.0
59.04606 23.0
59.926298 5.0
60.981237 32.0
61.007248 6.0
62.012197 26.0
63.020686 215.0
64.020855 11.0
64.030265 9.0
65.036005 962.0
66.038434 42.0
67.052553 172.0
68.993241 81.0
69.070572 73.0
71.04665 6.0
72.043469 513.0
72.934257 15.0
73.028828 6.0
74.011597 30.0
75.021306 47.0
76.018205 5.0
76.029306 56.0
77.038025 566.0
78.042124 130.0
79.052733 206.0
80.049682 48.0
81.067872 114.0
82.065871 8.0
83.08427 194.0
84.080189 7.0
86.012587 7.0
88.028516 6.0
89.037845 74.0
89.067425 45.0
89.934893 5.0
90.037114 6.0
90.041764 16.0
91.052253 1230.0
92.055213 112.0
93.058952 5.0
93.065562 64.0
94.061471 24.0
95.0837 32.0
95.950168 5.0
97.062659 6.0
97.099339 45.0
97.952627 6.0
99.993396 6.0
102.043324 42.0
103.048244 83.0
104.048103 5.0
104.054093 15.0
105.063822 20.0
105.068842 104.0
106.064301 33.0
107.06952 6.0
107.080671 48.0
108.990858 5.0
109.094179 17.0
110.086898 4.0
111.041777 7.0
111.079977 30.0
112.998285 21.0
113.036815 6.0
114.033664 7.0
115.052764 723.0
116.045783 13.0
116.058443 27.0
117.058972 36.0
117.066382 54.0
118.064851 25.0
119.04938 5.0
119.073961 23.0
120.08093 24.0
121.074889 7.0
121.098599 9.0
123.991886 6.0
125.094976 32.0
126.044535 38.0
126.902763 12.0
127.053994 208.0
128.060823 1065.0
129.046032 12.0
129.068292 178.0
130.064062 89.0
130.98853 29.0
131.060301 15.0
131.082731 23.0
132.01756 25.0
132.06484 5.0
133.011069 5.0
133.075469 8.0
134.991037 34.0
139.041064 6.0
139.052614 36.0
140.044363 6.0
140.052483 7.0
141.067563 556.0
141.932231 6.0
142.075812 146.0
143.086471 369.0
144.07838 21.0
145.068989 18.0
145.968308 11.0
147.964646 25.0
150.042965 15.0
150.108976 6.0
151.053834 45.0
152.059644 220.0
153.066363 167.0
154.067882 48.0
154.075192 56.0
155.083671 268.0
156.093001 594.0
157.054029 18.0
157.08595 19.0
157.097 5.0
158.075889 5.0
158.095599 23.0
159.082538 5.0
159.099838 6.0
160.110967 7.0
161.081786 7.0
161.100437 5.0
162.125376 10.0
162.997194 26.0
163.053484 30.0
164.054484 16.0
165.067373 104.0
166.060652 8.0
166.065702 18.0
167.070841 50.0
168.05488 6.0
168.067591 12.0
168.080281 24.0
169.08385 19.0
170.069959 13.0
170.090399 15.0
170.099339 6.0
171.116598 254.0

