>compound 
>formula C22H32O11
>parentmass 490.22828284663007
>ionization [M + H3N + H]+
>instrumentation Unknown (LCMS)
>source file:/Users/fanzhoukong/Documents/GitHub/Libgen/data/EAD_PFP/0_unknown_/spectrum.ms
>quality UNKNOWN

>ms2peaks
50.013937 156.0
51.021466 533.0
52.029145 70.0
53.036684 174.0
54.007083 36.0
55.016063 779.0
55.933221 8.0
56.022642 11.0
56.057112 7.0
57.032441 1012.0
57.932629 7.0
59.04821 128.0
60.042279 134.0
61.019378 6.0
61.025498 35.0
62.012087 22.0
63.019796 134.0
65.036675 975.0
66.043094 311.0
67.052423 1003.0
68.023352 7.0
69.033811 1096.0
71.011009 55.0
73.029528 68.0
74.013997 13.0
75.010136 18.0
75.020316 33.0
76.027465 32.0
77.037875 1084.0
78.033334 6.0
78.041984 142.0
79.052593 444.0
80.050412 27.0
81.032451 108.0
81.049202 61.0
81.068612 28.0
82.0045 70.0
83.04751 46.0
84.018959 16.0
85.026778 968.0
86.035147 13.0
87.043977 1584.0
89.036755 231.0
90.040674 11.0
91.053023 1254.0
92.057863 66.0
93.065392 88.0
94.040401 793.0
95.04818 364.0
95.952868 6.0
97.028708 1529.0
97.947597 6.0
99.043307 93.0
101.021485 137.0
102.045124 51.0
103.051044 184.0
104.050903 27.0
105.065642 17.0
105.066642 79.0
106.065111 31.0
107.04905 992.0
108.041599 7.0
108.08234 8.0
109.026458 18.0
110.037368 47.0
111.042607 13.0
112.005766 9.0
112.998075 23.0
113.022025 7.0
114.031364 14.0
114.66199 11.0
115.044144 3084.0
116.059293 45.0
117.062992 208.0
117.068292 110.0
118.038021 11.0
118.063571 29.0
119.0513 86.0
120.05495 32.0
120.07749 23.0
121.064969 523.0
122.034838 1157.0
123.043357 2688.0
124.050566 36.0
125.019165 9.0
126.026715 8.0
126.042105 10.0
126.050905 19.0
127.039404 544.0
128.058373 140.0
129.062502 57.0
130.067172 50.0
130.98941 14.0
131.052221 53.0
131.064541 19.0
131.089221 7.0
132.01618 11.0
132.05445 21.0
132.606655 10.0
133.051499 3142.0
134.037538 24.0
135.045437 157.0
135.055667 254.0
136.051377 81.0
137.057626 42.0
139.038494 35.0
139.045424 37.0
141.068483 55.0
142.079062 7.0
143.049901 5.0
143.078021 11.0
144.06048 48.0
145.047489 732.0
145.968038 14.0
146.072209 14.0
147.042327 494.0
147.967956 12.0
148.048997 37.0
149.057916 893.0
150.076285 2878.0
151.047534 55.0
151.077635 7.0
152.061774 91.0
153.066093 59.0
153.089113 11.0
154.067612 29.0
154.077342 17.0
155.056561 19.0
155.083401 22.0
156.0658 16.0
157.047599 33.0
157.061109 30.0
157.06848 16.0
157.08935 5.0
158.092859 12.0
159.043948 13.0
159.060008 6.0
159.087188 30.0
160.052417 38.0
160.085887 7.0
161.056626 593.0
162.051495 17.0
162.068945 95.0
163.071955 1386.0
164.059214 22.0
165.053233 678.0
166.062882 25.0
166.074232 14.0
167.069271 24.0
168.05459 7.0
168.077431 26.0
169.0517 232.0
171.044528 24.0
171.080398 7.0
172.051757 8.0
172.109568 10.0
173.058046 186.0
173.095437 7.0
174.068586 43.0
175.054845 15.0
175.071695 183.0
176.043884 7.0
176.060794 8.0
176.077704 16.0
177.090483 617.0
178.098323 2989.0
179.106402 2593.0
180.084461 441.0
181.03487 7.0
181.04805 31.0
181.05991 13.0
182.056499 6.0
182.072349 10.0
183.069078 26.0
183.099569 6.0
184.049907 7.0
184.080478 13.0
185.056026 17.0
185.064007 23.0
186.071556 9.0
187.057685 130.0
188.081384 11.0
189.048603 19.0
189.074183 296.0
189.089003 83.0
190.072303 20.0
191.089302 30.0
191.104192 210.0
191.99903 6.0
192.076431 10.0
193.05247 46.0
194.099229 10.0
195.066738 24.0
195.076298 13.0
195.098199 6.0
196.085998 6.0
197.068047 12.0
197.076307 49.0
198.070466 10.0
199.061625 29.0
199.068545 42.0
200.066324 11.0
201.056883 46.0
201.067993 76.0
201.087454 27.0
202.062433 9.0
202.080553 15.0
202.098643 22.0
203.070482 6.0
203.106782 1057.0
204.078251 14.0
204.093661 5.0
205.06887 129.0
206.078749 10.0
207.026288 12.0
207.034738 13.0
207.064339 56.0
208.032487 10.0
209.026997 6.0
209.096387 8.0
211.057235 90.0
212.086025 7.0
213.061564 12.0
213.074404 33.0
213.085854 19.0
214.062243 6.0
215.104062 458.0
217.07405 22.0
217.092821 13.0
217.123121 21.0
218.08845 10.0
219.068959 192.0
219.082019 234.0
219.099409 74.0
220.111258 79.0
221.121068 613.0
222.096697 21.0
223.061285 277.0
225.089354 7.0
227.102952 92.0
229.070661 14.0
229.084011 18.0
229.100331 70.0
229.112181 48.0
229.124041 135.0
231.064729 71.0
231.079619 45.0
231.100469 10.0
232.108288 8.0
233.079417 11.0
233.115298 41.0
234.081037 6.0
235.071286 11.0
235.095316 6.0
237.073144 62.0
239.106213 57.0
241.070391 456.0
242.07835 7.0
243.059389 7.0
243.094539 13.0
244.079168 6.0
245.117928 522.0
247.132766 14.0
249.076994 111.0
249.086274 18.0
250.965232 8.0
251.111123 8.0
255.088369 52.0
257.115428 1068.0
259.081116 709.0
261.070114 7.0
261.111285 15.0
263.128703 19.0
265.016721 7.0
266.997909 8.0
267.015519 8.0
267.08278 6.0
269.118258 46.0
274.126454 8.0
275.131343 1209.0
276.107182 31.0
277.091231 473.0
279.08588 6.0
281.053208 38.0
282.049317 10.0
283.045566 9.0
285.097865 16.0
287.101153 6.0
287.127734 110.0
293.138039 330.0
294.115008 49.0
295.103697 637.0
301.143792 6.0
305.140039 400.0
310.143505 94.0
311.148394 52.0
312.127193 77.0
318.205379 7.0
322.140565 12.0
323.150614 10.0
324.259234 6.0
329.139129 7.0
335.143184 8.0
340.14915 12.0
341.15081 9.0
341.16347 23.0
345.097596 7.0
358.157896 11.0
358.189416 168.0
368.130157 6.0
377.16173 10.0
383.147745 8.0
387.144642 6.0
400.154921 6.0
403.123359 6.0
408.154505 6.0
417.139147 9.0
436.172832 6.0
437.212791 7.0
440.136578 6.0
454.262538 6.0
472.198063 46.0
473.301403 17.0
490.181478 26.0
490.207508 95.0
490.224868 176.0

