>compound 
>formula C21H24O7
>parentmass 411.14142411051006
>ionization [M + Na]+
>instrumentation Unknown (LCMS)
>source file:/Users/fanzhoukong/Documents/GitHub/Libgen/data/EAD_PFP/0_unknown_/spectrum.ms
>quality UNKNOWN

>ms2peaks
115.058256 793.0
117.062355 71.0
118.062904 84.0
119.051683 172.0
126.047889 100.0
127.054028 176.0
128.058627 403.0
128.064167 847.0
129.073857 117.0
131.054665 49.0
141.070879 22.0
143.078047 60.0
145.060476 256.0
147.044675 1768.0
148.083534 50.0
150.053413 163.0
151.058282 119.0
152.062891 595.0
153.072031 1120.0
154.07113 256.0
155.068609 310.0
156.058289 242.0
157.064618 407.0
158.036007 127.0
158.097577 77.0
159.048687 563.0
159.084517 150.0
162.030055 91.0
163.044174 92.0
164.062713 23.0
165.074333 478.0
166.073942 66.0
167.070231 182.0
168.058051 183.0
169.06791 179.0
170.066739 88.0
171.047999 82.0
171.081319 1646.0
173.062807 226.0
174.465197 78.0
175.040186 5491.0
176.062965 54.0
177.054825 77.0
178.075644 101.0
180.083973 67.0
181.067312 981.0
182.073171 79.0
183.053971 168.0
183.079151 95.0
184.05469 1009.0
185.060789 2298.0
186.054949 75.0
187.038358 620.0
189.025077 188.0
189.043937 531.0
191.043965 94.0
192.077125 83.0
192.985114 62.0
197.059091 217.0
198.066991 294.0
199.0747 2049.0
201.053349 613.0
203.045957 647.0
205.122776 57.0
207.033885 114.0
209.074273 142.0
210.057053 125.0
211.044952 95.0
212.070861 96.0
213.054901 1781.0
215.072949 349.0
216.088399 202.0
217.086068 1701.0
221.077795 91.0
224.072364 110.0
225.058853 84.0
227.082662 7949.0
228.074261 154.0
229.0547 1275.0
231.105289 39.0
233.187417 49.0
236.069946 95.0
237.073415 63.0
237.115675 41.0
239.051954 66.0
240.067813 114.0
241.070622 112.0
242.087732 82.0
243.073371 83.0
244.07784 99.0
244.27685 95.0
244.71186 59.0
245.09052 15465.0
247.057498 137.0
249.061707 308.0
250.236516 169.0
251.078656 7237.0
252.059095 163.0
253.072604 251.0
254.085024 87.0
255.082223 118.0
257.069962 101.0
261.082829 60.0
264.060767 80.0
265.059816 372.0
266.067116 113.0
267.063545 612.0
268.061864 485.0
269.060394 365.0
271.066282 90.0
277.068328 58.0
277.105838 75.0
279.074307 220.0
280.058716 453.0
281.067866 565.0
282.068935 276.0
283.091574 892.0
284.087974 65.0
285.101033 49.0
291.081779 112.0
291.125229 64.0
292.056998 84.0
293.062338 298.0
294.072767 120.0
295.088306 368.0
297.075665 151.0
297.095935 138.0
298.147114 50.0
303.087991 64.0
305.08494 168.0
306.064459 64.0
307.086738 231.0
309.081307 1332.0
311.108256 121.0
311.130716 237.0
313.105414 132.0
315.232453 55.0
317.099732 117.0
319.1055 147.0
320.10025 69.0
321.091279 140.0
322.110198 314.0
323.114898 911.0
324.121157 82.0
325.128966 103.0
327.122735 96.0
329.145684 8241.0
333.095881 88.0
334.11037 88.0
335.11388 486.0
336.126059 145.0
337.128988 940.0
339.148337 173.0
341.115796 121.0
341.135696 131.0
342.129745 127.0
343.143384 76.0
347.287792 83.0
349.14323 100.0
350.12138 57.0
351.113749 2372.0
351.130289 16496.0
352.125898 416.0
353.124798 1614.0
354.130597 104.0
355.136026 493.0
357.239995 71.0
361.233772 117.0
363.133521 95.0
365.19922 81.0
366.132109 93.0
367.126248 270.0
367.137508 1181.0
375.177213 97.0
375.247403 93.0
375.304343 79.0
377.164572 277.0
379.17248 182.0
382.133018 54.0
393.180741 380.0
393.196271 416.0
395.10807 109.0
395.14119 1263.0
395.1743 669.0
396.177839 255.0
409.74802 72.0
409.77777 95.0
410.19431 126.0
411.147219 6899.0
411.161129 20298.0

