>compound 
>formula C32H52O14
>parentmass 683.32492734994
>ionization [M + Na]+
>instrumentation Unknown (LCMS)
>source file:/Users/fanzhoukong/Documents/GitHub/Libgen/data/EAD_PFP/0_unknown_/spectrum.ms
>quality UNKNOWN

>ms2peaks
126.044663 82.0
127.051904 77.0
128.062045 239.0
129.065056 53.0
130.068627 58.0
131.072718 29.0
132.08741 44.0
133.100381 40.0
135.092393 48.0
137.095745 37.0
138.047116 28.0
139.056077 39.0
141.059409 73.0
141.067559 89.0
142.06644 106.0
143.080591 122.0
144.079502 48.0
145.093714 21.0
146.075955 19.0
147.081706 21.0
162.091472 21.0
163.053233 42.0
164.061784 54.0
165.072155 252.0
166.076796 54.0
167.068037 83.0
167.084487 79.0
168.062218 49.0
168.088898 48.0
169.050439 119.0
170.10671 33.0
171.035561 44.0
172.110853 42.0
172.127553 20.0
174.068565 33.0
174.996506 29.0
175.145566 19.0
176.060757 69.0
178.072129 67.0
179.07619 42.0
179.08406 128.0
180.084401 58.0
181.070372 37.0
181.087522 61.0
182.097403 43.0
182.187303 30.0
183.034534 48.0
183.099494 55.0
184.117605 36.0
185.041246 229.0
186.051397 146.0
187.057579 31.0
187.148709 34.0
189.071361 173.0
190.088372 51.0
190.995723 56.0
191.997524 18.0
192.095274 56.0
192.985625 154.0
194.090886 28.0
195.098027 24.0
196.094058 34.0
197.128379 30.0
201.037244 949.0
202.048285 196.0
203.053526 72.0
203.134486 118.0
204.184387 28.0
205.098078 40.0
205.157028 37.0
207.03308 216.0
208.112781 21.0
209.015402 31.0
209.130132 37.0
210.988654 24.0
211.990165 36.0
213.142767 11.0
215.085079 62.0
217.075171 19.0
219.099073 24.0
221.114885 32.0
223.110677 13.0
224.143468 28.0
225.044859 80.0
226.08213 51.0
229.031714 90.0
231.050916 141.0
233.102898 29.0
239.084534 28.0
243.045159 22.0
245.063731 463.0
246.069242 22.0
247.166123 12.0
248.994525 27.0
250.981737 15.0
253.103079 61.0
259.127816 38.0
265.025652 97.0
266.998884 39.0
267.192585 20.0
267.998645 21.0
268.982626 23.0
270.105218 29.0
271.076929 12.0
273.053091 79.0
275.072143 57.0
277.152495 59.0
278.195586 20.0
281.054109 102.0
282.0502 20.0
283.054692 32.0
286.160015 47.0
287.166786 38.0
290.074259 27.0
291.15809 20.0
296.238206 27.0
299.062339 38.0
303.072083 43.0
305.075835 111.0
313.127414 27.0
313.177684 46.0
317.210858 39.0
319.15049 49.0
321.153942 105.0
321.169752 543.0
323.190115 53.0
325.211507 33.0
327.108049 35.0
329.091881 12.0
331.188653 75.0
333.075745 155.0
335.097257 34.0
337.18427 71.0
339.187562 28.0
341.213054 301.0
343.224616 38.0
345.081918 38.0
347.09752 405.0
351.139025 37.0
353.196157 19.0
355.209459 20.0
357.209951 72.0
359.216063 66.0
361.073265 52.0
363.103267 3302.0
365.10712 3365.0
369.157724 20.0
378.138934 12.0
380.137956 12.0
383.167469 22.0
387.133633 29.0
387.216513 37.0
389.194915 24.0
389.229705 97.0
395.168152 29.0
397.176484 12.0
401.139748 70.0
407.169995 54.0
409.188767 22.0
411.202569 44.0
413.245231 58.0
415.237053 38.0
417.139615 23.0
418.148617 31.0
419.158838 32.0
423.191742 28.0
425.171024 21.0
429.250958 12.0
431.15889 239.0
433.215773 76.0
435.236705 49.0
438.221548 12.0
439.208489 32.0
441.228931 18.0
443.241633 53.0
443.266383 12.0
447.189638 37.0
449.19302 45.0
451.221712 29.0
453.204904 26.0
455.250986 12.0
457.247198 36.0
461.250623 94.0
467.270499 41.0
469.205861 977.0
471.219623 40.0
473.254786 31.0
475.240938 46.0
480.322173 12.0
483.233556 77.0
485.199498 19.0
485.251289 27.0
485.309549 12.0
487.227821 29.0
489.243053 24.0
490.212084 12.0
493.262037 12.0
497.192591 31.0
498.197902 20.0
499.219533 2873.0
501.226496 41.0
501.237456 137.0
503.268218 262.0
504.268649 28.0
505.27667 89.0
513.217289 56.0
513.230599 444.0
515.218821 49.0
515.247751 48.0
516.346812 33.0
519.215655 12.0
519.258075 61.0
519.266985 82.0
521.275777 168.0
527.253444 33.0
531.260468 142.0
533.29001 40.0
537.258574 21.0
539.294956 26.0
545.194073 23.0
545.264933 21.0
549.270857 1042.0
553.247611 42.0
553.279901 12.0
561.26971 45.0
563.278992 172.0
565.270994 36.0
566.265935 27.0
567.289737 1101.0
568.284188 59.0
569.295779 476.0
571.279611 78.0
577.261187 34.0
581.347252 12.0
590.276521 20.0
591.281342 54.0
593.286344 26.0
593.317354 54.0
595.278047 36.0
597.292209 44.0
605.284107 22.0
607.269269 46.0
609.279412 27.0
615.264218 49.0
620.321473 51.0
621.329535 79.0
623.309027 189.0
635.296399 36.0
637.325212 169.0
638.317283 73.0
639.302754 48.0
647.330722 12.0
651.299717 38.0
653.326329 56.0
655.353611 12.0
663.29466 43.0
664.306811 63.0
665.319632 2231.0
666.313043 73.0
666.333303 280.0
680.998849 67.0
681.323549 378.0
682.3263 289.0
683.334841 17884.0

