>compound 
>formula C18H22O2
>parentmass 271.1693
>ionization [M + H]+
>instrumentation Unknown (LCMS)
>source file:/Users/fanzhoukong/Documents/GitHub/Libgen/data/NIST_MONA/0_unknown_/spectrum.ms
>quality UNKNOWN

>ms2peaks
81.0699 0.146922
83.0491 0.856818
93.07 0.17116
95.0128 7.187394
107.0492 0.258085
107.0855 0.319801
121.0647 0.218338
133.0647 0.460388
133.1011 0.140541
135.0804 0.147076
141.0698 0.113998
143.0854 0.282502
145.0649 0.101392
145.1012 0.331075
147.0804 0.290634
149.0962 0.128193
157.0649 0.452387
159.0805 0.812786
159.1169 0.135369
161.0959 0.234232
167.0857 0.11622
169.1012 0.172873
171.0804 0.213769
171.1167 0.342553
173.0964 0.219064
179.0856 0.285883
183.0804 0.33514
183.1169 0.228691
184.0881 0.110806
185.0961 0.497757
187.1116 0.330545
189.1273 0.850496
193.1011 0.295586
195.1169 0.26273
197.0962 1.338496
197.1329 0.133442
198.1041 0.255709
199.1118 5.157623
207.1168 0.203249
209.1325 0.371792
211.1117 1.059084
211.1485 0.219132
212.1196 0.128285
213.1274 0.182715
214.1355 0.25163
215.1432 0.129473
225.1274 0.914579
225.1633 0.240274
227.143 1.288091
235.1481 0.672754
238.135 0.18709
243.1745 0.381864
253.1587 10.148938
271.1692 100.0

