>compound 
>formula C9H13N5O3
>parentmass 240.109115600586
>ionization [M + H]+
>instrumentation Unknown (LCMS)
>source file:/Users/fanzhoukong/Documents/GitHub/Libgen/data/NIST_MONA/0_unknown_/spectrum.ms
>quality UNKNOWN

>ms2peaks
42.03323 1.462981
44.04894 6.233834
45.03291 3.501354
56.04998 4.788535
69.04401 1.316986
83.06019 4.510184
86.03439 16.140782
95.0592 1.272531
98.07046 3.265438
108.04432 8.981975
121.05107 6.018631
122.05405 1.049749
127.06125 12.797042
140.05675 2.256608
154.07227 5.665515
164.05762 5.37504
165.06477 100.0
166.07272 25.998222
167.07495 1.731228
168.08832 21.146541
169.09164 1.546334
178.0726 12.007456
179.07974 39.341355
180.08817 11.142095
195.07553 20.133669
196.08301 4.130799
204.08823 1.013882
218.06552 5.872131
240.10902 1.392762
262.09174 22.345821
263.09442 2.442006
278.06528 2.477873

