>compound 
>formula C22H34O5
>parentmass 401.22984519367
>ionization [M + Na]+
>instrumentation Unknown (LCMS)
>source file:/Users/fanzhoukong/Documents/GitHub/Libgen/data/EAD_PFP/0_unknown_/spectrum.ms
>quality UNKNOWN

>ms2peaks
50.016605 109.0
51.024122 451.0
52.02401 75.0
52.02825 38.0
53.038597 77.0
54.039225 34.0
55.055733 174.0
56.05018 28.0
57.072028 14.0
60.983668 57.0
62.016936 48.0
63.024653 258.0
64.028741 35.0
65.036809 183.0
65.039179 663.0
66.045596 130.0
67.054914 256.0
68.060571 48.0
68.996399 199.0
70.066477 14.0
72.93572 11.0
74.013887 31.0
75.021035 44.0
76.030712 121.0
77.03855 900.0
78.044367 181.0
79.054965 352.0
80.052783 94.0
81.07008 188.0
82.053868 14.0
83.087345 33.0
85.006511 29.0
86.004748 22.0
88.030643 17.0
89.039961 191.0
90.044799 60.0
91.057156 1531.0
92.058244 221.0
93.053461 94.0
93.061971 74.0
94.063539 38.0
95.068557 47.0
95.085746 41.0
95.950284 33.0
97.076272 12.0
98.976287 18.0
99.046467 36.0
102.03937 49.0
102.04531 59.0
103.052207 63.0
104.057055 37.0
105.070792 162.0
106.06725 77.0
107.076518 44.0
107.085638 53.0
108.076305 23.0
109.083813 30.0
109.101203 30.0
110.997218 23.0
111.002378 27.0
111.992296 21.0
113.005353 20.0
113.020973 57.0
114.043901 18.0
115.054609 532.0
116.056066 38.0
116.061336 76.0
117.056554 45.0
117.067154 128.0
118.060281 49.0
118.068791 46.0
119.080049 44.0
120.080576 50.0
122.037932 24.0
123.042089 19.0
123.115999 16.0
126.046282 40.0
127.0491 66.0
127.05573 129.0
128.064777 265.0
129.064455 83.0
130.065762 110.0
130.98239 23.0
130.99359 45.0
131.07321 19.0
132.021488 44.0
132.075518 13.0
133.074875 27.0
133.096345 31.0
135.055301 14.0
137.061806 58.0
139.047291 18.0
139.072711 25.0
140.050599 32.0
141.055206 19.0
141.069166 115.0
141.929154 21.0
142.068064 54.0
143.083371 78.0
144.083489 73.0
145.084726 35.0
145.971024 26.0
146.091784 27.0
147.082142 38.0
147.968569 30.0
149.076477 34.0
149.133897 28.0
150.044475 19.0
151.055332 43.0
151.078212 87.0
152.06113 178.0
153.072697 123.0
154.063295 60.0
155.063182 41.0
155.085142 44.0
156.07119 34.0
156.08834 30.0
157.072668 31.0
157.088628 19.0
157.100918 13.0
158.083485 46.0
159.097553 47.0
159.118563 21.0
160.0938 35.0
161.055848 33.0
161.095628 25.0
161.131678 25.0
163.003593 21.0
163.047373 53.0
164.053371 25.0
165.071258 190.0
166.065816 16.0
166.075896 47.0
167.072204 41.0
167.079784 77.0
168.079101 65.0
169.078819 40.0
169.094099 35.0
170.094276 12.0
171.078194 27.0
172.107352 23.0
173.076429 25.0
173.115079 29.0
175.037015 26.0
176.054592 22.0
176.064992 45.0
177.04774 29.0
178.077667 73.0
179.071255 23.0
180.043962 26.0
180.076822 22.0
180.99031 22.0
181.04565 26.0
181.07861 27.0
182.096388 14.0
182.192897 17.0
183.053395 34.0
183.093165 17.0
184.082023 31.0
185.08287 17.0
187.041796 16.0
188.070813 12.0
189.020471 13.0
189.055491 17.0
189.078381 24.0
189.160561 13.0
190.072458 18.0
190.081918 24.0
191.008196 73.0
191.070486 34.0
192.080624 41.0
192.983181 44.0
193.022641 41.0
193.048501 111.0
194.099349 33.0
195.099666 31.0
196.094324 12.0
197.075002 43.0
197.094262 23.0
199.076887 13.0
199.143237 16.0
201.061102 13.0
201.123602 23.0
202.07778 54.0
203.050967 34.0
203.097037 48.0
203.109597 75.0
203.130547 35.0
204.078245 37.0
204.146835 14.0
205.085712 21.0
206.06047 16.0
207.031898 91.0
208.031055 12.0
208.096065 22.0
209.066613 29.0
209.102013 28.0
211.098448 21.0
212.094516 11.0
213.148693 14.0
215.069478 15.0
215.088158 25.0
217.078244 16.0
217.164853 24.0
218.102781 20.0
221.078664 13.0
221.193744 21.0
222.071692 33.0
223.126959 19.0
225.042114 17.0
225.090604 13.0
226.161832 15.0
227.08353 18.0
229.095625 28.0
230.102022 15.0
231.07339 15.0
233.068655 15.0
233.119495 20.0
234.127203 17.0
235.10102 16.0
237.098466 21.0
237.125625 16.0
239.169501 15.0
240.077838 15.0
241.038086 16.0
242.982661 15.0
247.132341 28.0
248.993087 18.0
251.182082 18.0
254.096895 14.0
255.119192 15.0
256.11842 17.0
261.109138 47.0
262.097835 14.0
263.096343 13.0
265.019338 48.0
265.118218 16.0
267.003714 16.0
267.106193 12.0
269.124069 20.0
271.096324 9.0
273.189119 27.0
275.125794 23.0
279.068805 15.0
281.05412 55.0
282.050218 39.0
283.059645 33.0
283.161845 13.0
285.08387 11.0
285.17817 27.0
287.128605 12.0
290.117608 29.0
294.120869 27.0
295.033856 13.0
301.112272 13.0
301.156462 18.0
303.092487 19.0
309.056593 16.0
309.073833 24.0
311.204408 11.0
313.144683 31.0
315.193568 35.0
319.167888 16.0
321.181954 18.0
323.130129 22.0
327.157559 27.0
327.201869 14.0
329.226854 10.0
332.157307 28.0
333.173935 12.0
337.180545 22.0
339.21988 22.0
341.196616 37.0
343.206291 29.0
347.146641 16.0
347.223311 13.0
351.118652 19.0
351.192082 15.0
353.203337 36.0
355.157582 24.0
355.192652 27.0
365.236078 25.0
367.227013 19.0
369.204548 90.0
370.187786 10.0
370.214156 24.0
371.160994 17.0
371.217603 16.0
373.075269 14.0
381.17937 14.0
381.20614 24.0
383.161455 44.0
383.213245 114.0
384.209182 25.0
385.19486 37.0
385.20063 29.0
386.206828 14.0
399.185706 50.0
399.215066 70.0
399.902375 23.0
400.213934 26.0
400.225684 60.0
401.239531 9600.0

