>compound 
>formula C14H16O5
>parentmass 287.0889946135301
>ionization [M + Na]+
>instrumentation Unknown (LCMS)
>source file:/Users/fanzhoukong/Documents/GitHub/Libgen/data/EAD_PFP/0_unknown_/spectrum.ms
>quality UNKNOWN

>ms2peaks
50.015476 90.0
51.022985 189.0
52.027824 31.0
53.038893 122.0
54.034483 8.0
55.016802 8.0
55.052412 49.0
55.053862 126.0
55.934681 8.0
56.046831 5.0
57.03388 25.0
57.07088 31.0
57.935549 7.0
59.049628 15.0
60.983277 45.0
62.014236 28.0
63.023495 192.0
64.025224 6.0
65.038013 904.0
66.044422 31.0
67.052941 147.0
68.023851 9.0
68.99522 153.0
69.07011 11.0
71.049438 48.0
72.937876 9.0
74.015226 29.0
75.010515 6.0
75.023235 32.0
76.030384 41.0
77.039083 687.0
78.042312 146.0
79.053771 244.0
80.05158 67.0
81.03184 9.0
81.06888 9.0
82.072189 5.0
83.085248 7.0
85.063116 6.0
86.015345 6.0
86.097135 23.0
87.022215 9.0
88.028514 5.0
89.037823 222.0
90.040792 25.0
91.054061 1247.0
92.0589 157.0
93.069249 89.0
94.063259 17.0
95.084518 78.0
95.952897 9.0
97.065386 13.0
97.949535 9.0
98.984794 19.0
99.992194 5.0
101.046053 11.0
102.046042 38.0
103.054941 108.0
104.05181 12.0
105.069539 115.0
106.068018 35.0
107.050938 26.0
107.062088 11.0
107.081348 5.0
108.053667 6.0
108.080147 9.0
109.026286 6.0
109.066186 20.0
111.043444 8.0
111.115714 19.0
112.999923 35.0
115.054391 515.0
116.04846 10.0
116.05796 47.0
117.054219 34.0
117.064819 108.0
118.064328 37.0
119.083047 34.0
120.077157 15.0
120.084666 16.0
121.026896 11.0
121.064616 18.0
121.094796 16.0
121.101266 22.0
122.035565 13.0
123.044064 12.0
123.079924 28.0
123.119054 6.0
124.989182 5.0
124.997942 14.0
125.094342 7.0
126.047181 45.0
126.902101 12.0
127.055541 177.0
128.06126 405.0
129.067599 96.0
130.063348 77.0
130.991167 10.0
131.085357 49.0
132.021316 21.0
132.078726 22.0
133.083745 5.0
134.038135 9.0
135.046024 7.0
137.024942 275.0
138.043971 5.0
139.05522 36.0
140.05046 26.0
140.06089 6.0
141.070189 226.0
141.926658 6.0
142.074918 86.0
143.084387 116.0
144.083336 51.0
145.026755 15.0
145.079845 26.0
145.964975 15.0
146.077434 5.0
147.118824 19.0
147.964853 11.0
149.021302 323.0
150.045531 26.0
150.065941 12.0
151.05519 67.0
151.06964 14.0
152.062209 305.0
153.068929 204.0
154.076538 59.0
155.065487 10.0
155.085017 204.0
156.093106 148.0
157.090955 48.0
157.099565 296.0
158.074744 16.0
158.110474 16.0
159.082603 29.0
159.094963 50.0
159.109793 46.0
160.087493 10.0
160.976172 26.0
161.095512 23.0
162.044351 7.0
163.04349 147.0
163.0535 32.0
164.062029 44.0
165.071158 410.0
166.078327 139.0
167.068307 24.0
167.082237 24.0
167.087287 117.0
168.056126 9.0
168.067556 16.0
168.077716 21.0
168.087876 15.0
169.064695 7.0
169.082535 21.0
169.100375 81.0
170.077574 18.0
170.105684 9.0
171.102443 10.0
171.115253 119.0
172.113682 13.0
173.099532 31.0
173.130482 26.0
174.133451 14.0
175.02137 37.0
176.063599 13.0
177.055478 553.0
178.077597 68.0
179.072506 26.0
179.081676 56.0
181.065345 10.0
181.095665 181.0
182.071184 29.0
182.093664 20.0
183.079843 28.0
183.090433 49.0
183.101053 25.0
184.088602 43.0
185.082801 12.0
185.096131 133.0
186.10375 20.0
187.07657 8.0
187.10874 11.0
188.066709 8.0
189.067548 32.0
190.068347 16.0
191.001376 10.0
191.086666 15.0
191.108336 60.0
191.140836 6.0
192.980405 46.0
192.988565 17.0
193.034835 6.0
193.064785 7.0
193.984664 6.0
194.076074 14.0
195.073623 6.0
195.090033 11.0
195.100983 58.0
195.109183 34.0
196.087412 11.0
197.077711 12.0
197.099711 82.0
198.06635 8.0
198.10082 10.0
199.111399 309.0
200.069099 5.0
201.086068 6.0
201.126348 18.0
202.063817 8.0
202.077737 15.0
203.029986 13.0
203.085816 8.0
203.098396 11.0
203.106766 37.0
204.081015 8.0
205.091284 25.0
205.103894 29.0
205.157214 10.0
206.096984 6.0
206.158873 13.0
207.031863 55.0
208.031022 9.0
209.079311 23.0
209.101991 94.0
210.10045 24.0
210.990259 8.0
211.075649 9.0
211.104109 10.0
211.111229 16.0
212.080208 29.0
213.062858 6.0
213.091468 31.0
214.095087 9.0
215.111126 38.0
215.119746 16.0
215.170036 11.0
215.968305 10.0
216.145405 12.0
217.082554 17.0
217.098444 6.0
217.121524 5.0
219.109392 33.0
219.119562 7.0
219.135502 19.0
220.098012 6.0
222.07314 7.0
222.971869 7.0
223.047929 6.0
223.128409 6.0
223.169379 7.0
224.148028 8.0
224.965688 8.0
225.045047 7.0
226.063137 19.0
227.107146 161.0
229.083764 8.0
229.107484 11.0
231.103192 5.0
233.116521 6.0
233.158391 29.0
234.15418 11.0
236.116008 6.0
237.054737 15.0
237.099977 25.0
237.109027 37.0
239.068026 8.0
241.086784 47.0
241.193274 18.0
242.062763 9.0
242.990322 12.0
245.08073 7.0
245.11603 55.0
246.06169 7.0
247.127759 6.0
248.993117 12.0
249.986486 7.0
251.129325 7.0
251.140195 14.0
251.163475 37.0
252.162724 11.0
253.047094 10.0
254.056323 14.0
255.064462 16.0
257.12909 6.0
258.088199 8.0
259.097969 6.0
265.019374 18.0
266.997372 13.0
267.989131 6.0
269.08074 101.0
269.13537 6.0
270.055409 16.0
271.059288 22.0
272.065028 22.0
281.05418 65.0
282.055219 24.0
283.049818 16.0
285.080637 43.0
287.100445 242.0
287.140295 28.0

