>compound 
>formula C59H94O30
>parentmass 1300.61681261672
>ionization [M + H3N + H]+
>instrumentation Unknown (LCMS)
>source file:/Users/fanzhoukong/Documents/GitHub/Libgen/data/EAD_PFP/0_unknown_/spectrum.ms
>quality UNKNOWN

>ms2peaks
127.053873 105.0
128.059604 474.0
129.068144 115.0
130.063924 81.0
131.083684 157.0
132.079305 93.0
133.100145 154.0
139.053516 80.0
141.066136 63.0
143.066277 60.0
145.047447 266.0
145.054527 346.0
147.118278 54.0
165.069362 174.0
167.077892 131.0
168.084782 112.0
169.098552 100.0
171.113433 83.0
172.125983 51.0
173.132503 164.0
174.138073 23.0
175.145264 86.0
178.071814 104.0
181.095115 97.0
183.035545 120.0
185.106246 53.0
187.147046 288.0
189.068357 143.0
190.069147 85.0
191.144357 85.0
192.983947 135.0
195.096328 95.0
200.058869 62.0
201.166089 160.0
202.078599 74.0
203.1523 231.0
204.08188 120.0
207.03415 135.0
209.029211 71.0
210.030341 48.0
211.144851 40.0
213.163872 74.0
216.084382 62.0
218.090653 112.0
227.140575 25.0
230.092585 36.0
232.144796 48.0
234.092196 23.0
235.156076 23.0
238.155027 23.0
241.075598 54.0
246.159529 47.0
247.168799 68.0
248.987939 38.0
251.98491 23.0
253.07772 80.0
255.209441 29.0
259.081681 53.0
262.194102 27.0
265.018843 119.0
266.998453 63.0
279.212356 23.0
287.197867 55.0
289.098558 125.0
295.093989 39.0
295.104089 160.0
302.1701 23.0
307.102871 66.0
324.104245 111.0
325.113825 469.0
355.327062 24.0
371.260655 22.0
387.267958 24.0
391.303689 24.0
393.3119 149.0
401.386361 22.0
409.314923 58.0
411.325083 142.0
421.312946 213.0
423.328116 42.0
435.385209 24.0
439.308399 365.0
439.320729 354.0
451.137752 59.0
456.316853 63.0
457.154293 279.0
457.326073 272.0
467.318445 156.0
470.166836 24.0
484.318729 116.0
485.323879 140.0
487.1665 539.0
501.306822 38.0
502.327243 62.0
503.337743 80.0
515.155705 28.0
571.360617 46.0
573.291768 36.0
583.183 24.0
603.385404 25.0
611.364526 24.0
617.359587 98.0
619.210847 522.0
629.38327 25.0
647.367033 32.0
649.217744 404.0
663.371807 25.0
665.386757 135.0
681.979781 25.0
700.391345 22.0
707.390486 25.0
778.401921 25.0
781.246952 136.0
781.263432 362.0
797.435555 45.0
808.422307 25.0
825.428961 25.0
827.425611 251.0
959.416049 26.0
959.488929 144.0
976.517193 43.0
989.472216 66.0
989.509136 222.0
1001.523358 26.0
1004.507919 75.0
1092.542977 26.0
1104.54994 83.0
1106.57264 148.0
1118.544813 26.0
1120.531143 72.0
1121.547863 236.0
1135.517716 26.0
1138.566667 58.0
1151.55104 242.0
1166.538963 154.0
1166.568993 293.0
1168.567403 26.0
1281.601607 39.0
1283.583788 294.0
1299.588431 176.0
1299.595511 637.0
1300.627001 4497.0

