>compound 
>formula C15H18O4
>parentmass 263.12779005842003
>ionization [M + H]+
>instrumentation Unknown (LCMS)
>source file:/Users/fanzhoukong/Documents/GitHub/Libgen/data/EAD_PFP/0_unknown_/spectrum.ms
>quality UNKNOWN

>ms2peaks
105.070813 52.0
114.049237 26.0
115.054728 5007.0
116.06569 460.0
117.070471 1685.0
119.085544 1779.0
121.064987 828.0
122.073819 49.0
123.04554 57.0
123.082491 78.0
125.034494 34.0
125.058594 51.0
126.045395 372.0
127.054847 1044.0
128.061668 3157.0
129.07025 1189.0
130.079421 124.0
131.084683 111.0
137.059822 84.0
139.056865 62.0
141.070678 792.0
142.07776 669.0
143.084902 2401.0
144.054443 200.0
145.089815 4655.0
145.100435 2208.0
146.067296 72.0
146.073216 218.0
147.081338 2220.0
148.088159 65.0
149.062531 210.0
149.074471 231.0
150.046082 289.0
151.056964 1034.0
152.063985 5130.0
153.073137 8081.0
154.079549 2465.0
155.08925 6392.0
156.096142 9745.0
157.087873 11126.0
158.074105 5641.0
159.081986 7079.0
160.090578 6682.0
161.062559 704.0
161.074979 500.0
161.083699 828.0
162.049961 31.0
163.059142 97.0
163.076662 425.0
163.095413 419.0
163.112953 1104.0
164.061424 614.0
165.073066 10323.0
166.081487 6985.0
167.089209 859.0
168.05934 968.0
168.06695 1015.0
169.067912 5314.0
170.073133 2360.0
170.518024 31.0
171.105665 10998.0
171.122335 599.0
172.087376 1177.0
172.823228 42.0
173.101508 9472.0
173.833069 48.0
174.07985 97.0
174.10441 202.0
175.076511 2266.0
176.063013 79.0
176.083813 119.0
177.090084 115.0
178.075696 137.0
179.085017 1228.0
180.091929 128.0
181.103 8454.0
182.074592 582.0
183.083223 6017.0
184.093325 10974.0
185.095547 2995.0
186.103178 352.0
187.07867 369.0
187.08671 239.0
187.11485 150.0
188.082261 169.0
189.072373 426.0
189.083143 777.0
189.104693 652.0
189.123553 492.0
190.056964 90.0
190.073184 143.0
191.091526 377.0
191.105056 465.0
192.994819 34.0
193.121399 58.0
194.07143 610.0
195.082632 214.0
196.088224 52.0
197.078535 253.0
197.093655 2719.0
198.101647 246.0
199.116378 15508.0
200.12122 229.0
201.093861 124.0
201.106351 345.0
201.129971 172.0
202.100883 77.0
203.075524 302.0
203.085284 764.0
203.099244 980.0
204.079096 27.0
207.044021 41.0
208.081352 32.0
209.097194 4736.0
210.098495 39.0
211.075117 467.0
212.085408 3571.0
213.09382 49.0
215.097683 82.0
215.107733 114.0
217.122466 1422.0
219.098749 43.0
221.104352 79.0
221.117482 139.0
225.094519 59.0
227.108132 5155.0
230.080736 43.0
233.120531 202.0
235.132104 375.0
245.11863 958.0
263.129367 65.0

