>compound 
>formula C21H22O6
>parentmass 393.13085942648
>ionization [M + Na]+
>instrumentation Unknown (LCMS)
>source file:/Users/fanzhoukong/Documents/GitHub/Libgen/data/EAD_PFP/0_unknown_/spectrum.ms
>quality UNKNOWN

>ms2peaks
115.05558 385.0
116.061271 99.0
117.070261 303.0
119.079982 325.0
121.099263 133.0
123.109425 129.0
126.048446 124.0
127.055697 327.0
128.061418 1001.0
129.068858 245.0
131.087769 108.0
145.102458 252.0
147.040599 744.0
148.055609 127.0
149.13156 855.0
150.04452 195.0
151.059001 306.0
152.066032 412.0
153.080032 405.0
154.071863 174.0
155.080333 289.0
156.081064 122.0
157.103435 358.0
159.116176 934.0
161.131777 1124.0
163.147558 1359.0
164.062239 175.0
165.075149 764.0
166.07602 192.0
167.09765 275.0
169.096782 121.0
170.107182 49.0
171.110363 327.0
172.125463 67.0
173.133274 401.0
175.147335 1736.0
176.053436 196.0
177.128716 299.0
179.108117 145.0
180.087488 57.0
181.124909 442.0
183.08272 71.0
185.097701 293.0
185.135021 216.0
187.039292 62.0
189.159413 448.0
190.073974 163.0
191.072024 1061.0
192.090325 72.0
193.124926 683.0
194.072236 101.0
195.134067 765.0
197.064198 124.0
198.067999 96.0
199.147609 209.0
200.15806 56.0
201.16412 999.0
203.157302 317.0
203.183822 216.0
205.067703 277.0
206.076173 64.0
207.136454 781.0
208.039774 133.0
209.147595 257.0
211.147096 258.0
212.148987 79.0
213.164687 275.0
215.173189 300.0
215.181829 798.0
216.096729 126.0
217.19834 343.0
218.07412 170.0
219.080691 242.0
221.156152 717.0
223.071633 49.0
226.023655 82.0
227.178306 241.0
228.090246 80.0
229.186377 372.0
232.081468 160.0
233.082429 172.0
233.157229 104.0
234.09305 98.0
235.16444 219.0
235.17645 210.0
237.098781 78.0
239.169833 121.0
241.189024 63.0
241.196624 351.0
243.210585 382.0
245.097936 107.0
247.168127 651.0
248.083788 98.0
249.183619 292.0
250.062739 113.0
251.06756 125.0
255.205622 250.0
255.211882 715.0
256.219163 157.0
257.223703 507.0
259.129864 108.0
261.188706 501.0
263.093587 280.0
264.081257 105.0
265.191998 54.0
267.101789 139.0
272.081532 68.0
273.081073 452.0
274.158653 23.0
275.202594 1444.0
277.053455 146.0
279.087246 207.0
281.052917 169.0
283.055138 48.0
283.234828 49.0
285.09424 88.0
286.10577 76.0
287.198791 90.0
289.212742 191.0
291.091673 204.0
291.116733 334.0
293.085694 256.0
297.256227 111.0
299.174628 65.0
301.221569 455.0
303.07423 435.0
303.10322 172.0
304.089821 51.0
305.089971 236.0
307.096962 489.0
309.150124 169.0
315.131517 117.0
317.080458 172.0
318.087789 130.0
319.094929 357.0
321.105241 473.0
321.259751 299.0
323.104272 236.0
329.090565 141.0
331.222987 297.0
333.110138 1162.0
334.090668 167.0
335.090539 1581.0
337.13974 126.0
339.270991 542.0
341.240632 234.0
341.253292 179.0
344.109464 57.0
346.213355 289.0
347.112586 855.0
348.106146 113.0
349.097507 357.0
349.112127 901.0
350.115908 226.0
353.249979 46.0
355.265271 133.0
356.272291 128.0
357.284462 6191.0
360.093393 137.0
361.105354 1031.0
362.113175 554.0
363.098095 250.0
363.118635 209.0
365.141246 4264.0
365.150616 6687.0
373.560471 24.0
375.241812 139.0
377.099993 139.0
378.114614 437.0
393.138123 2038.0

