>compound 
>formula C20H28O3
>parentmass 339.19306576115
>ionization [M + Na]+
>instrumentation Unknown (LCMS)
>source file:/Users/fanzhoukong/Documents/GitHub/Libgen/data/EAD_PFP/0_unknown_/spectrum.ms
>quality UNKNOWN

>ms2peaks
50.015082 364.0
51.022593 1404.0
52.030264 108.0
53.038505 576.0
55.051307 202.0
55.054207 1173.0
56.053058 43.0
57.061619 53.0
57.069759 135.0
59.049261 80.0
60.982913 46.0
62.013864 69.0
63.023135 395.0
64.029567 56.0
65.038448 2651.0
66.041679 40.0
66.045659 171.0
67.05419 1774.0
69.069752 785.0
70.063313 44.0
71.051564 54.0
71.087904 46.0
73.042156 27.0
74.013207 58.0
75.025448 156.0
76.030049 224.0
77.038751 1634.0
78.044572 397.0
79.055183 2526.0
80.055634 135.0
81.073855 2735.0
82.070986 44.0
83.084037 272.0
85.061899 68.0
89.040283 446.0
90.038634 36.0
90.044214 36.0
91.056566 3586.0
92.056717 129.0
93.071788 1401.0
94.055369 43.0
94.069619 76.0
95.08518 1516.0
96.053391 32.0
97.066072 138.0
97.099852 76.0
99.031304 59.0
99.043004 60.0
101.038876 74.0
101.048726 45.0
102.045767 497.0
103.052678 451.0
104.060529 115.0
105.069271 2310.0
106.069772 39.0
107.084123 1452.0
109.100715 2211.0
111.043187 44.0
111.062797 68.0
113.003839 28.0
113.044459 37.0
114.04552 31.0
115.055191 2275.0
116.061932 361.0
117.070943 1055.0
118.067285 42.0
119.072116 187.0
119.086016 410.0
120.085507 38.0
121.099958 1649.0
123.08296 60.0
123.11557 552.0
125.061252 59.0
125.095222 48.0
126.046963 259.0
127.054214 2067.0
128.065485 6023.0
129.069606 2336.0
130.078777 717.0
131.052618 79.0
131.060478 158.0
131.078428 554.0
132.05712 81.0
132.06839 35.0
133.071121 122.0
133.081281 157.0
133.085801 477.0
133.100511 310.0
134.083292 40.0
135.044673 85.0
135.097063 102.0
135.117533 1429.0
137.067165 59.0
137.097005 107.0
137.121075 91.0
139.056187 237.0
140.059548 41.0
141.071159 1807.0
142.0794 509.0
143.087731 3315.0
144.053762 96.0
144.063162 170.0
144.098442 49.0
145.090294 578.0
145.098554 621.0
146.065405 36.0
146.081995 41.0
147.077066 152.0
147.099656 171.0
149.128798 261.0
149.133578 512.0
151.03818 61.0
151.043 504.0
152.063251 742.0
153.071182 1430.0
154.078813 203.0
155.072664 242.0
155.082414 858.0
157.067476 644.0
158.074597 510.0
159.082469 699.0
160.09106 82.0
160.13072 32.0
161.094131 360.0
161.105331 220.0
163.047113 595.0
163.094663 110.0
163.149713 38.0
164.061904 160.0
164.092024 29.0
165.062225 294.0
165.071025 2522.0
166.078206 406.0
167.088427 652.0
168.053468 72.0
168.069978 110.0
168.092838 46.0
169.072229 589.0
170.0749 278.0
171.070291 41.0
171.081821 4334.0
172.090412 356.0
173.098134 1196.0
174.064825 44.0
174.098425 46.0
174.142385 106.0
175.038116 405.0
175.143106 92.0
175.153486 86.0
176.062187 181.0
177.059298 567.0
178.076189 845.0
179.08551 866.0
180.062191 43.0
180.095061 211.0
181.062622 107.0
181.066572 640.0
181.074482 660.0
181.100852 82.0
182.072423 310.0
182.089613 116.0
183.083714 539.0
183.110234 100.0
184.056595 1275.0
185.082706 245.0
185.098696 211.0
186.087628 26.0
186.115688 42.0
187.083189 178.0
187.111319 526.0
188.04782 146.0
188.15396 36.0
189.067471 1699.0
189.089011 148.0
190.077722 193.0
191.082533 267.0
192.083204 28.0
192.092714 287.0
193.100115 317.0
194.071926 166.0
194.110136 44.0
195.083127 753.0
195.095427 453.0
196.090088 162.0
197.073519 82.0
197.094149 412.0
197.131289 34.0
198.08284 56.0
198.10354 70.0
199.079551 6647.0
199.089221 5021.0
200.063513 27.0
201.063794 166.0
201.084614 104.0
201.095724 140.0
201.101294 172.0
201.130474 74.0
202.065165 647.0
203.070426 794.0
204.075377 35.0
204.090767 60.0
205.088418 1005.0
206.080079 31.0
206.094149 60.0
206.112429 120.0
207.08963 128.0
207.12064 283.0
208.087511 208.0
209.080702 82.0
209.094862 364.0
210.106093 208.0
211.075624 31.0
211.114044 268.0
211.153904 72.0
212.121575 35.0
213.062846 38.0
213.094306 148.0
213.102876 210.0
213.124337 207.0
215.073759 197.0
215.083809 382.0
215.108239 115.0
215.139859 87.0
216.37013 56.0
216.42201 29.0
217.095541 9526.0
218.102752 57.0
218.215622 30.0
219.087643 99.0
219.103593 393.0
220.087824 40.0
220.106714 24.0
221.093215 46.0
221.099045 223.0
221.110705 161.0
221.128175 75.0
222.105266 141.0
223.090367 65.0
223.104997 197.0
223.115237 346.0
224.099638 30.0
224.118698 93.0
225.062689 120.0
225.106789 101.0
225.125869 343.0
225.156739 78.0
227.087971 89.0
227.110132 169.0
227.127832 159.0
229.088234 268.0
229.098614 132.0
231.106196 1246.0
232.094597 30.0
233.098598 105.0
233.115068 60.0
233.140488 70.0
234.104769 44.0
234.218689 40.0
235.10257 92.0
235.11458 138.0
236.096481 74.0
237.112092 151.0
237.128692 413.0
238.092103 29.0
239.125624 143.0
239.145324 663.0
240.080935 55.0
241.088357 367.0
241.102037 235.0
241.112697 85.0
243.101859 354.0
245.102271 89.0
245.117591 409.0
247.123193 55.0
247.135513 57.0
247.172463 38.0
249.107575 33.0
249.124585 125.0
249.135405 97.0
250.107386 31.0
251.109207 200.0
251.123187 221.0
253.073659 34.0
253.107939 147.0
253.125099 130.0
254.09389 31.0
255.105212 416.0
257.116614 236.0
257.148044 41.0
259.120156 109.0
259.135906 279.0
260.154067 22.0
260.242537 25.0
261.129868 88.0
261.164688 45.0
261.177348 62.0
263.11079 57.0
263.13304 49.0
263.15529 43.0
264.116011 21.0
265.118362 357.0
265.143872 205.0
267.104724 99.0
267.125564 97.0
268.111136 29.0
269.114587 582.0
270.137658 22.0
271.133599 246.0
275.156853 35.0
275.202363 129.0
277.107025 46.0
277.133145 52.0
277.206515 51.0
279.139377 98.0
279.167207 198.0
281.095369 49.0
281.120029 191.0
283.117532 162.0
283.129092 1278.0
285.146954 35.0
285.161844 61.0
285.188304 112.0
288.152267 27.0
289.145888 52.0
289.177528 69.0
291.13322 31.0
293.191112 332.0
295.138445 57.0
295.170425 108.0
295.192305 87.0
295.204085 55.0
297.153007 226.0
303.171233 59.0
303.188293 115.0
303.196833 139.0
307.155117 45.0
309.13614 28.0
309.16196 31.0
321.192822 756.0
323.165695 81.0
338.187231 34.0
339.180612 131.0
339.196842 2689.0

