>compound 
>formula C11H12O7
>parentmass 279.04752372375003
>ionization [M + Na]+
>instrumentation Unknown (LCMS)
>source file:/Users/fanzhoukong/Documents/GitHub/Libgen/data/EAD_PFP/0_unknown_/spectrum.ms
>quality UNKNOWN

>ms2peaks
50.014088 124.0
51.02159 282.0
52.022892 42.0
52.029962 39.0
53.038205 88.0
54.035957 19.0
55.053189 167.0
55.934011 12.0
56.049822 18.0
57.069464 163.0
59.047459 32.0
60.984153 83.0
62.013576 27.0
63.022068 243.0
63.99558 14.0
65.038163 1021.0
66.042985 103.0
67.051497 143.0
68.02321 26.0
68.05149 42.0
68.993782 209.0
70.039244 11.0
72.938931 15.0
74.014614 40.0
75.009046 64.0
75.020076 33.0
76.029768 131.0
77.039331 554.0
78.039973 158.0
79.049686 103.0
80.050988 49.0
81.06476 65.0
81.07093 75.0
82.056513 15.0
83.085555 19.0
85.011049 13.0
87.008854 19.0
89.032629 33.0
89.037249 154.0
90.037441 14.0
90.042091 57.0
91.053504 2151.0
92.057396 131.0
93.034678 60.0
93.041288 99.0
93.063968 52.0
94.063661 50.0
95.044813 20.0
95.062963 47.0
95.950435 16.0
97.064848 27.0
99.006682 18.0
99.991665 15.0
101.034687 14.0
102.039579 40.0
102.047499 38.0
103.053422 132.0
104.053294 34.0
105.038906 39.0
105.065016 162.0
106.064479 47.0
107.083881 35.0
108.058253 12.0
109.100476 19.0
110.061348 16.0
111.00166 23.0
112.008173 19.0
113.000475 75.0
114.031687 25.0
115.05391 410.0
116.047982 20.0
116.056422 35.0
117.062224 82.0
118.060667 61.0
119.077229 30.0
120.054151 18.0
121.029664 176.0
122.068656 13.0
123.079478 20.0
123.994091 19.0
124.999693 18.0
126.046745 58.0
127.039638 22.0
127.053988 110.0
128.05971 212.0
129.056032 21.0
129.071613 68.0
130.062925 69.0
130.988487 60.0
131.074837 57.0
132.055779 27.0
133.021182 14.0
133.073162 13.0
134.106924 27.0
139.055966 23.0
140.048888 29.0
141.069781 43.0
141.923943 11.0
142.071023 68.0
143.068775 32.0
144.070018 32.0
145.0665 18.0
145.974062 34.0
149.023339 1457.0
150.947704 21.0
151.052444 34.0
152.060656 123.0
153.061299 72.0
154.066461 60.0
155.065143 45.0
155.081003 43.0
156.063396 28.0
156.076856 26.0
157.004698 19.0
157.068518 16.0
157.089378 17.0
158.09411 44.0
159.089693 14.0
160.074755 16.0
161.096427 15.0
162.12884 15.0
163.005652 11.0
163.080712 12.0
164.056694 19.0
165.070847 101.0
166.069189 42.0
167.078131 76.0
168.072334 29.0
169.069496 30.0
170.095168 28.0
172.109523 13.0
173.114715 12.0
175.14683 19.0
176.064632 28.0
177.142555 14.0
178.074707 41.0
178.964749 14.0
179.081409 16.0
180.077812 30.0
181.066414 18.0
182.073586 10.0
183.072949 19.0
183.104759 13.0
184.112271 13.0
185.103884 8.0
189.064613 42.0
190.072175 27.0
191.001147 104.0
191.067487 16.0
192.0912 30.0
192.980182 66.0
194.092245 23.0
195.096657 10.0
197.129762 24.0
199.024116 10.0
200.953921 21.0
201.045581 45.0
202.087303 41.0
203.145676 10.0
205.0448 13.0
205.0911 15.0
206.061663 11.0
206.096803 13.0
207.033105 49.0
209.026739 11.0
209.12307 12.0
211.084034 14.0
212.115737 16.0
219.088973 21.0
220.063005 17.0
225.024357 17.0
228.103154 6.0
230.985471 7.0
234.077678 30.0
234.109158 16.0
242.984179 40.0
248.145171 12.0
249.984925 8.0
252.1005 14.0
261.980553 11.0
265.01462 26.0
266.992595 18.0
267.995587 15.0
268.99562 10.0
277.074369 14.0
279.047673 56.0
279.068943 207.0
279.091863 125.0

