>compound 
>formula C25H28O11
>parentmass 522.1969827177101
>ionization [M + H3N + H]+
>instrumentation Unknown (LCMS)
>source file:/Users/fanzhoukong/Documents/GitHub/Libgen/data/EAD_PFP/0_unknown_/spectrum.ms
>quality UNKNOWN

>ms2peaks
113.037429 22.0
115.05231 320.0
118.066472 64.0
121.025833 77.0
121.029063 386.0
126.047206 110.0
128.062378 170.0
145.062168 110.0
147.086789 87.0
149.02255 1730.0
150.04676 572.0
151.054031 973.0
152.062232 3525.0
153.068962 538.0
155.061853 131.0
157.084855 69.0
158.094485 108.0
159.081406 177.0
161.073167 154.0
163.056048 484.0
164.063329 636.0
165.069939 3436.0
166.07457 372.0
167.07087 251.0
168.057421 764.0
169.064752 281.0
170.096782 65.0
173.060904 67.0
175.053815 46.0
176.061046 458.0
177.069846 445.0
178.076317 1205.0
179.080407 713.0
180.055748 393.0
180.079418 315.0
181.068019 1001.0
182.072549 198.0
183.08121 884.0
187.056522 260.0
189.071623 2532.0
190.076484 547.0
191.085364 1707.0
192.091465 678.0
193.063466 291.0
194.073396 412.0
195.081867 408.0
197.084628 612.0
197.101128 347.0
201.06527 105.0
202.080581 245.0
203.088662 245.0
205.064663 366.0
206.068903 346.0
207.081254 506.0
208.090424 737.0
209.080775 702.0
210.070666 546.0
211.077116 1345.0
213.095807 56.0
216.087849 77.0
217.07106 131.0
218.07389 249.0
219.083351 521.0
220.090791 413.0
221.090352 652.0
223.109423 1848.0
224.082084 183.0
225.053914 308.0
226.063185 131.0
227.073256 232.0
229.086787 149.0
233.095639 137.0
234.06582 360.0
235.07857 241.0
236.082951 595.0
237.092501 563.0
238.066422 1129.0
239.072623 366.0
240.079443 81.0
241.089874 1414.0
247.072377 141.0
248.081988 238.0
249.084368 450.0
250.090359 158.0
251.10455 3661.0
252.07414 164.0
253.089231 368.0
255.067642 157.0
261.090255 92.0
263.072647 135.0
265.080038 196.0
265.084828 529.0
267.091879 2589.0
268.07741 1630.0
269.0808 699.0
275.073934 120.0
276.082204 198.0
277.085775 215.0
278.097715 232.0
279.103296 3461.0
281.101867 14831.0
282.086548 510.0
282.091488 1407.0
283.058128 239.0
284.069359 97.0
291.096373 212.0
292.074954 120.0
293.080324 290.0
294.087435 576.0
294.092475 1553.0
295.099645 2570.0
296.078186 204.0
297.080267 1130.0
298.084077 736.0
305.079381 58.0
307.096602 2842.0
308.103433 341.0
309.123944 5848.0
311.090555 108.0
312.096965 81.0
313.111926 92.0
321.090871 63.0
323.091602 130.0
325.112663 660.0
327.124104 144.0
337.11422 135.0
341.099122 135.0
342.113073 330.0
349.100777 105.0
361.106824 56.0
370.105119 65.0
383.111897 72.0
405.13453 439.0
433.134176 73.0
469.135727 130.0
487.149868 182.0
504.160738 319.0
522.282608 80.0

