>compound 
>formula C39H48O18
>parentmass 822.3178856993
>ionization [M + H3N + H]+
>instrumentation Unknown (LCMS)
>source file:/Users/fanzhoukong/Documents/GitHub/Libgen/data/EAD_PFP/0_unknown_/spectrum.ms
>quality UNKNOWN

>ms2peaks
119.044877 41.0
123.044367 69.0
126.046379 61.0
127.053616 124.0
128.062653 496.0
129.06898 121.0
130.063618 112.0
130.074808 50.0
131.047505 173.0
132.021572 56.0
133.02638 66.0
133.05801 100.0
134.037257 73.0
135.043994 526.0
137.055009 83.0
137.061889 64.0
139.040444 838.0
140.056501 49.0
141.069248 420.0
142.059976 33.0
143.047133 67.0
143.076423 67.0
144.08121 45.0
145.067107 82.0
147.044192 93.0
157.065345 31.0
159.04572 36.0
161.057124 171.0
162.035782 226.0
163.038659 2410.0
164.053416 140.0
165.071304 1402.0
166.078481 147.0
167.057048 112.0
167.074778 110.0
168.056266 257.0
169.062293 658.0
170.07515 94.0
171.051318 196.0
171.055168 284.0
173.057122 53.0
173.059702 283.0
174.03405 51.0
175.040927 367.0
176.052024 143.0
176.066324 63.0
177.058201 969.0
178.026729 497.0
179.037216 2786.0
180.071583 67.0
181.065451 530.0
182.060718 82.0
183.082585 368.0
184.051463 113.0
185.06024 622.0
186.058387 47.0
186.067737 90.0
187.061915 462.0
187.076655 279.0
189.060879 736.0
190.040057 122.0
190.069757 81.0
191.032554 404.0
191.050184 770.0
192.061611 46.0
192.073831 65.0
192.084691 74.0
193.047159 455.0
194.070686 68.0
195.072293 60.0
195.085963 371.0
196.05728 72.0
197.059868 1206.0
198.071925 73.0
199.074112 384.0
200.04558 206.0
201.059687 441.0
202.042954 59.0
202.068024 127.0
203.050962 213.0
203.069082 115.0
204.040459 50.0
204.079639 45.0
205.054816 230.0
205.067446 915.0
205.088486 205.0
206.087164 74.0
207.102351 1363.0
208.052208 49.0
209.056666 71.0
210.067783 135.0
211.07707 590.0
212.047408 76.0
213.055725 784.0
214.063552 133.0
215.073749 663.0
216.070497 63.0
216.077707 77.0
217.052234 567.0
218.096951 104.0
219.090509 674.0
219.100669 1729.0
221.061133 216.0
223.052258 35.0
223.078618 193.0
225.050873 178.0
225.056743 313.0
226.06307 166.0
227.070177 486.0
228.041065 199.0
228.078054 105.0
229.055522 556.0
230.063339 53.0
231.068876 483.0
233.083551 573.0
234.094168 855.0
235.097946 1097.0
236.081313 54.0
237.04861 78.0
238.064768 211.0
239.070955 1990.0
240.079272 65.0
241.05017 298.0
242.061127 208.0
243.066564 1985.0
244.072541 100.0
245.080619 1736.0
246.089236 301.0
247.066033 664.0
247.090683 138.0
249.060998 106.0
249.082648 75.0
250.065375 60.0
251.074843 91.0
252.08794 47.0
253.059417 140.0
253.070327 143.0
253.090577 76.0
254.059305 329.0
255.067432 2198.0
256.075979 914.0
257.077107 3745.0
258.081744 96.0
259.063121 576.0
261.074196 45.0
261.091616 84.0
262.062843 38.0
263.08829 39.0
264.080718 48.0
265.073415 90.0
266.058402 158.0
267.06923 3078.0
268.041857 32.0
268.077137 66.0
269.082134 967.0
270.058452 112.0
271.063909 1253.0
272.069646 146.0
273.074014 569.0
275.054168 81.0
276.080286 51.0
277.070793 143.0
278.0631 62.0
279.053908 108.0
279.068647 284.0
280.077625 58.0
281.076912 252.0
282.051709 46.0
283.057807 316.0
283.072637 359.0
284.064064 132.0
284.072334 356.0
285.080381 7077.0
286.067019 81.0
286.085269 109.0
287.088586 479.0
288.067043 53.0
289.072161 1021.0
290.074028 35.0
291.059255 52.0
292.067913 29.0
293.08332 118.0
293.11521 143.0
294.085397 36.0
295.082434 101.0
295.092534 193.0
297.098479 418.0
299.129874 1888.0
300.069241 163.0
301.074668 1660.0
303.107623 493.0
305.089238 83.0
307.089332 450.0
309.082187 409.0
310.114684 66.0
311.091851 50.0
311.117761 316.0
311.129871 704.0
312.132869 269.0
312.134599 877.0
313.120166 1013.0
315.094221 51.0
315.115061 151.0
317.081425 48.0
317.133765 37.0
319.08365 42.0
321.109705 137.0
322.123412 633.0
323.126329 997.0
325.096304 248.0
325.113974 437.0
327.089948 213.0
327.120068 694.0
329.061283 68.0
329.095033 83.0
329.141243 97.0
331.061678 34.0
331.113378 49.0
333.132532 67.0
335.091447 57.0
336.103594 46.0
337.113692 145.0
339.118536 445.0
340.136753 2282.0
341.132971 1615.0
341.149261 9959.0
342.154208 64.0
343.111635 102.0
343.117065 146.0
345.13604 1615.0
347.113455 127.0
351.090794 419.0
353.094389 46.0
353.118319 190.0
353.138579 167.0
354.109376 51.0
355.114773 458.0
356.125271 187.0
357.133508 272.0
361.104377 90.0
363.085882 195.0
365.110286 179.0
365.132756 309.0
367.130911 137.0
369.136406 132.0
373.105145 103.0
375.09082 310.0
377.138854 43.0
379.091359 48.0
381.100543 384.0
382.141591 43.0
383.147628 495.0
385.140603 59.0
387.094397 132.0
389.087952 120.0
389.111142 155.0
390.103079 32.0
393.090381 100.0
393.102011 552.0
394.091259 62.0
394.106828 194.0
395.112896 88.0
395.132366 84.0
399.089355 57.0
405.096299 535.0
406.104446 265.0
407.127694 1570.0
411.102443 283.0
412.12399 87.0
413.122947 88.0
415.110462 35.0
417.090747 84.0
419.113871 76.0
419.129921 54.0
421.176056 49.0
423.108271 102.0
425.123675 2661.0
427.12767 33.0
429.120154 1685.0
431.123389 136.0
431.141699 122.0
433.112914 81.0
435.115228 80.0
435.133598 52.0
437.152853 68.0
439.178817 53.0
443.121067 50.0
443.162297 248.0
445.138061 86.0
445.158721 109.0
446.163789 92.0
447.134786 591.0
448.156603 33.0
449.146351 116.0
451.127055 50.0
453.1309 118.0
455.180974 75.0
457.185419 61.0
459.124994 56.0
460.156181 106.0
461.167528 3793.0
462.171526 4207.0
463.174543 1104.0
465.158458 102.0
466.143525 29.0
467.140232 187.0
467.163542 498.0
471.158992 72.0
473.134326 39.0
474.181163 53.0
475.169321 55.0
477.153045 43.0
479.17093 717.0
480.175017 1356.0
481.195215 4083.0
485.181074 3393.0
487.163919 43.0
489.176853 207.0
501.159451 55.0
501.185761 62.0
502.184108 225.0
503.190055 8156.0
503.205435 9524.0
505.18291 87.0
507.188555 367.0
509.182689 75.0
515.173003 50.0
517.167198 45.0
523.199712 161.0
529.183766 39.0
533.152865 37.0
545.192573 33.0
545.213143 56.0
547.195797 72.0
551.160447 130.0
555.167156 162.0
556.155493 43.0
557.19095 39.0
568.161141 48.0
569.158628 90.0
569.172668 272.0
575.187852 63.0
587.18007 3271.0
591.172429 41.0
593.208254 103.0
594.201231 63.0
605.205231 62.0
606.203329 45.0
606.222619 74.0
607.221576 254.0
609.190571 74.0
623.211773 1017.0
624.21976 1207.0
625.218728 440.0
625.233438 706.0
629.195637 35.0
641.236745 161.0
642.231862 997.0
643.232709 3847.0
643.240159 6159.0
647.243999 71.0
651.230188 47.0
653.184103 29.0
663.234616 11.0
665.23925 830.0
667.234235 33.0
669.244969 107.0
669.267739 71.0
685.246946 71.0
695.22507 34.0
717.204131 31.0
731.226313 173.0
749.227115 459.0
749.237865 484.0
768.258443 47.0
769.271561 251.0
769.312331 100.0
786.278105 143.0
787.264612 138.0
787.281092 169.0
804.284467 199.0
805.293254 1746.0
822.328848 304.0

