>compound 
>formula C21H24N2O10
>parentmass 487.13231597808
>ionization [M + Na]+
>instrumentation Unknown (LCMS)
>source file:/Users/fanzhoukong/Documents/GitHub/Libgen/data/EAD_PFP/0_unknown_/spectrum.ms
>quality UNKNOWN

>ms2peaks
115.05066 152.0
115.05697 4344.0
116.059487 281.0
117.070595 2167.0
118.078632 88.0
119.08779 7241.0
121.102815 951.0
123.08365 153.0
123.11408 116.0
126.046543 99.0
127.056 805.0
128.061708 1887.0
129.070285 631.0
130.074983 214.0
131.0847 292.0
133.102285 63.0
139.055651 22.0
141.070616 635.0
142.077693 663.0
143.091851 1086.0
144.094358 755.0
145.106236 4032.0
146.086153 166.0
146.111023 175.0
147.119261 4393.0
147.965289 67.0
149.118616 1408.0
149.132996 2230.0
150.051964 145.0
151.072491 444.0
151.095361 344.0
152.062639 2156.0
153.070556 3056.0
154.076964 871.0
155.087891 2739.0
156.095969 3320.0
157.103656 5811.0
158.092414 196.0
158.112124 680.0
159.118871 6431.0
160.104009 233.0
161.117066 6750.0
162.052254 70.0
163.149011 6927.0
164.068729 124.0
165.075347 1540.0
166.077484 416.0
167.082642 389.0
167.091502 1225.0
168.092099 955.0
169.103327 2140.0
170.111194 784.0
171.116952 4764.0
172.123079 204.0
173.136027 7153.0
174.146784 114.0
175.151412 4269.0
176.132899 96.0
177.166687 4393.0
178.079305 409.0
179.072892 825.0
179.080762 855.0
180.0916 162.0
181.102657 812.0
182.111245 367.0
183.118662 3484.0
184.12619 450.0
185.136507 2993.0
187.143942 589.0
187.150642 8797.0
188.16116 163.0
189.163577 15384.0
190.175435 243.0
191.142583 1221.0
191.160183 15363.0
192.09588 172.0
193.133218 443.0
193.159098 599.0
194.103755 111.0
195.125983 852.0
196.12072 226.0
197.134458 1699.0
198.141185 247.0
199.153243 5078.0
200.12212 99.0
201.161448 5829.0
201.169788 8376.0
202.147735 128.0
202.172805 107.0
203.171353 8704.0
205.160378 6326.0
206.111416 108.0
207.157693 514.0
207.170383 745.0
209.150518 975.0
211.152863 1013.0
212.159051 67.0
213.171908 1937.0
214.174286 86.0
215.160323 2109.0
215.177573 2288.0
216.150081 84.0
217.163759 6192.0
219.172114 1504.0
219.179364 1767.0
221.144549 624.0
221.154739 1165.0
223.160944 326.0
225.162969 1013.0
226.179856 85.0
227.182784 1663.0
229.158229 1954.0
231.179484 1333.0
233.151269 611.0
233.163229 898.0
234.163517 92.0
235.176464 5987.0
237.160649 545.0
239.178924 693.0
240.189002 155.0
241.185969 362.0
241.192059 884.0
242.203317 98.0
243.186154 626.0
243.192254 1166.0
243.216704 351.0
245.16695 415.0
245.18842 311.0
245.229829 101.0
247.168125 2339.0
249.18823 998.0
251.179315 290.0
253.18767 1919.0
255.196195 371.0
255.204025 658.0
257.20952 372.0
259.173965 183.0
259.200795 447.0
261.18705 1781.0
263.182505 186.0
263.195225 146.0
265.19513 327.0
267.213805 748.0
269.1903 121.0
269.22567 535.0
271.188616 184.0
273.192701 330.0
275.205786 500.0
277.196871 191.0
279.211546 251.0
280.227353 94.0
281.226921 237.0
283.213276 236.0
283.236376 211.0
285.188431 250.0
287.203656 258.0
288.207254 88.0
289.207641 157.0
289.222631 162.0
291.210236 105.0
293.224751 196.0
295.251296 206.0
297.202042 166.0
297.249341 261.0
299.210067 417.0
301.212922 297.0
303.222477 242.0
303.242947 258.0
305.201042 153.0
305.228422 176.0
307.211817 60.0
307.246147 157.0
308.249774 75.0
309.239522 114.0
313.207432 111.0
315.221737 139.0
315.242617 275.0
317.226832 127.0
319.243487 349.0
321.256032 746.0
322.26817 76.0
323.278387 1306.0
325.213503 131.0
327.230558 140.0
329.241393 134.0
331.244158 183.0
333.252973 264.0
335.266068 230.0
337.249243 95.0
339.225648 90.0
341.262083 131.0
343.262898 95.0
345.262283 137.0
347.269268 167.0
347.280228 604.0
349.278453 339.0
349.302253 244.0
351.256688 279.0
353.120844 250.0
355.261289 137.0
359.288619 138.0
361.291234 163.0
363.301309 128.0
365.257014 291.0
366.268702 110.0
367.270529 853.0
368.275597 90.0
369.280174 338.0
371.259449 124.0
375.10483 211.0
375.313569 1263.0
377.322234 647.0
379.309569 228.0
381.284875 291.0
387.30527 1805.0
389.324465 758.0
391.27334 80.0
391.2966 226.0
392.310727 99.0
393.322285 6764.0
395.33373 778.0
397.278055 97.0
398.282293 86.0
399.170361 103.0
403.30288 324.0
405.319935 9464.0
407.320241 554.0
407.342 2087.0
409.303696 166.0
409.315596 204.0
411.289951 303.0
415.280941 143.0
419.293201 102.0
420.308829 373.0
421.309556 3915.0
422.327614 249.0
423.334791 4280.0
425.338626 657.0
425.346716 2946.0
427.118382 483.0
432.302749 71.0
433.313587 6264.0
435.289772 146.0
437.309357 331.0
438.297364 131.0
439.323392 4995.0
441.327627 993.0
442.355154 407.0
443.361162 297.0
450.312685 310.0
451.323552 4065.0
451.333952 7225.0
453.292387 73.0
457.335037 107.0
468.3276 305.0
469.322408 412.0
469.337238 3065.0
472.115151 93.0
486.324166 151.0
487.171394 1464.0
487.212464 1038.0
487.350864 648.0

