>compound 
>formula C26H40O10
>parentmass 535.2513684849
>ionization [M + Na]+
>instrumentation Unknown (LCMS)
>source file:/Users/fanzhoukong/Documents/GitHub/Libgen/data/EAD_PFP/0_unknown_/spectrum.ms
>quality UNKNOWN

>ms2peaks
115.052714 77.0
118.052021 63.0
119.083531 65.0
127.052834 71.0
128.061883 77.0
129.069352 51.0
130.068472 126.0
133.073159 22.0
147.119728 22.0
152.058364 98.0
152.061974 203.0
153.067513 76.0
154.075122 63.0
155.073841 100.0
156.08191 53.0
158.097979 75.0
163.053414 64.0
165.063533 36.0
165.067303 206.0
166.068152 159.0
168.067511 77.0
169.05575 80.0
170.097989 69.0
173.087947 55.0
177.055523 23.0
179.080432 73.0
180.082081 71.0
183.025598 62.0
184.030227 141.0
185.040276 177.0
186.046416 53.0
187.145066 54.0
189.077133 99.0
191.027271 72.0
192.986039 110.0
194.092679 60.0
201.037723 274.0
203.058222 57.0
204.072941 32.0
205.08178 65.0
207.029388 165.0
216.072391 57.0
218.09598 25.0
231.141 40.0
235.086616 23.0
239.139883 23.0
256.086369 43.0
257.107928 44.0
268.993287 32.0
271.111867 57.0
281.056878 164.0
283.235518 23.0
285.187586 23.0
297.184406 98.0
299.158484 32.0
300.167493 42.0
306.162938 23.0
311.160914 97.0
315.155061 75.0
315.163751 77.0
317.161669 46.0
322.118165 34.0
323.200355 23.0
325.175873 129.0
327.192821 82.0
329.17334 64.0
331.120627 23.0
333.175606 63.0
337.178633 109.0
339.190922 548.0
341.16033 1390.0
343.184458 109.0
349.159093 39.0
351.177392 198.0
353.15916 269.0
355.155758 23.0
355.188968 1434.0
363.116191 24.0
366.19724 137.0
371.181875 668.0
373.200294 516.0
375.171082 33.0
377.1946 71.0
381.221647 24.0
383.186625 219.0
385.200834 24.0
387.203022 24.0
391.172539 28.0
391.201619 80.0
393.184337 2258.0
393.188217 5693.0
397.196034 76.0
399.174292 70.0
401.190821 1704.0
401.206511 1045.0
403.206529 169.0
404.220209 261.0
405.219388 1432.0
407.203666 529.0
408.210505 947.0
409.224495 324.0
414.1878 105.0
415.209199 665.0
417.195758 41.0
419.211096 24.0
421.223265 760.0
425.193391 39.0
427.21984 85.0
429.192268 59.0
429.309979 24.0
432.211336 30.0
433.220045 457.0
434.227894 86.0
437.201101 58.0
441.231228 64.0
443.206827 90.0
445.155824 24.0
447.237534 182.0
455.199007 40.0
455.431029 24.0
457.226555 240.0
459.201913 65.0
460.205893 44.0
461.238312 136.0
463.22441 80.0
470.216814 24.0
472.230653 66.0
473.214672 35.0
473.250902 143.0
475.228491 361.0
477.257319 1238.0
478.225128 96.0
481.164545 80.0
485.212862 44.0
486.223281 48.0
487.228261 811.0
489.230479 54.0
489.247809 115.0
491.225947 428.0
491.241148 604.0
499.222211 27.0
501.209439 37.0
501.240139 148.0
503.235768 153.0
504.236167 66.0
505.241946 185.0
506.257585 61.0
515.228248 182.0
516.240517 268.0
517.235956 2317.0
519.213994 238.0
519.231885 243.0
533.243123 1443.0
534.248012 973.0
535.258332 17719.0

