>compound 
>formula C34H60O13
>parentmass 694.4372129882099
>ionization [M + H3N + H]+
>instrumentation Unknown (LCMS)
>source file:/Users/fanzhoukong/Documents/GitHub/Libgen/data/EAD_PFP/0_unknown_/spectrum.ms
>quality UNKNOWN

>ms2peaks
99.068683 66.0
99.077453 164.0
109.028431 9503.0
111.039412 47.0
111.046642 47.0
113.014614 53.0
115.036645 67.0
115.052405 89.0
116.108746 56.0
117.067067 62.0
117.082967 28.0
118.069778 21.0
119.055388 39.0
119.089598 45.0
121.02812 38.0
121.06368 129.0
121.10249 55.0
123.037701 42.0
123.044221 66.0
123.110511 55.0
123.117031 76.0
125.024393 35.0
125.837374 27.0
126.031954 59.0
127.031414 153.0
127.040244 3141.0
137.123772 29.0
139.042734 3464.0
140.063424 41.0
141.054125 39.0
141.057605 98.0
142.062306 85.0
142.990887 30.0
143.089307 44.0
144.043597 28.0
144.094167 26.0
145.047058 337.0
145.100148 61.0
145.721519 63.0
146.048079 97.0
146.056369 91.0
147.07038 388.0
147.1167 35.0
148.09024 58.0
148.12603 38.0
149.061041 213.0
149.074191 145.0
149.098121 109.0
149.132821 40.0
150.046992 54.0
150.063792 56.0
151.042233 131.0
151.074733 166.0
151.149393 162.0
152.050393 61.0
152.061273 179.0
152.087833 32.0
153.055874 1311.0
154.075605 55.0
154.132765 326.0
155.034056 84.0
155.070656 99.0
155.102386 64.0
156.044446 38.0
156.097076 37.0
157.047057 152.0
157.056867 96.0
158.056558 68.0
158.081208 91.0
159.058199 52.0
159.071789 102.0
159.090319 127.0
159.116269 65.0
160.084059 28.0
161.05726 83.0
161.09581 113.0
161.13809 58.0
162.037171 77.0
162.050891 114.0
162.087071 71.0
162.110761 30.0
163.001302 35.0
163.071332 58.0
163.083852 169.0
163.100112 41.0
163.113882 73.0
163.146412 45.0
164.082432 49.0
164.156483 31.0
165.051343 101.0
165.067703 84.0
165.075263 230.0
165.089093 118.0
166.057194 42.0
166.067274 35.0
167.064825 103.0
167.109145 111.0
167.142075 93.0
168.050095 175.0
168.159336 32.0
168.466906 52.0
168.496146 287.0
168.512666 110.0
169.056116 35575.0
169.996157 22.0
170.102197 247.0
170.212077 56.0
170.616187 89.0
171.060488 74.0
173.085699 37.0
175.051521 167.0
177.080612 86.0
178.094953 29.0
179.109574 28.0
181.049905 58.0
185.115178 124.0
186.046659 68.0
187.06221 1076.0
188.069801 40.0
191.175103 37.0
192.059254 24.0
193.194524 785.0
195.068556 541.0
195.080886 200.0
196.739967 113.0
197.093257 260.0
197.109767 286.0
197.115257 287.0
199.057919 29.0
199.089699 70.0
200.06814 92.0
201.11429 7479.0
203.123962 532.0
204.155653 51.0
206.091834 233.0
207.102805 453.0
208.116256 82.0
208.181276 122.0
209.123696 73.0
209.153467 55.0
209.191697 161.0
210.197487 175.0
210.485888 37.0
210.527108 73.0
210.730418 43.0
211.063318 13268.0
211.207088 3468.0
212.069279 67.0
212.326149 122.0
212.460349 36.0
213.063349 176.0
213.073359 763.0
213.6357 32.0
214.04112 11.0
215.393301 23.0
216.852182 62.0
217.070083 23.0
217.309723 46.0
218.074323 76.0
218.169813 32.0
219.091064 36.0
219.135994 40.0
221.092266 47.0
221.137416 31.0
221.188396 22.0
222.178766 53.0
223.054287 31.0
223.092327 32.0
223.096707 52.0
223.688248 70.0
224.110418 222.0
225.114629 5054.0
227.12538 34.0
227.19478 39.0
228.057931 31.0
228.229571 132.0
229.070962 6656.0
230.081742 49.0
230.099602 50.0
231.109683 182.0
231.126063 153.0
233.166425 51.0
235.178206 28.0
237.118648 60.0
238.122848 46.0
238.852029 19.0
239.094339 53.0
239.200379 49.0
239.93121 32.0
241.070621 45.0
241.982561 108.0
242.119731 37.0
242.997012 53.0
243.123762 78.0
245.134994 87.0
245.150334 60.0
247.069825 53.0
247.085205 63.0
247.165305 67.0
247.256185 12.0
249.188507 47.0
249.222527 31.0
251.128358 30.0
251.204438 31.0
252.206889 21.0
253.20667 59.0
255.082271 70.0
255.091671 115.0
256.130062 30.0
257.135983 64.0
259.212154 35.0
261.187376 64.0
261.207976 49.0
261.223786 74.0
263.119267 33.0
263.171717 31.0
264.251888 31.0
265.114109 49.0
265.209809 22.0
266.10877 101.0
266.25421 101.0
267.12287 12267.0
268.150151 42.0
268.935182 45.0
269.136022 105.0
271.105103 25.0
271.219643 49.0
272.120614 43.0
273.091075 144.0
273.097545 187.0
273.105625 269.0
275.172036 48.0
276.206517 41.0
276.224437 51.0
277.213568 197.0
278.229019 25.0
279.121899 23.0
279.41823 31.0
281.056501 29.0
283.116442 33.0
284.134353 79.0
285.137564 3256.0
287.159255 44.0
288.082966 28.0
289.181417 68.0
290.216848 38.0
290.223528 134.0
290.240228 76.0
291.110368 61.0
291.234089 76.0
292.244709 44.0
293.17489 23.0
293.21011 41.0
293.23696 48.0
296.249082 39.0
297.241363 119.0
299.100395 49.0
299.124115 72.0
299.146145 29.0
299.200345 18.0
303.146208 206.0
305.203249 228.0
305.215239 619.0
307.224341 58.0
308.234801 29.0
309.245182 87.0
309.281372 95.0
309.291722 41.0
311.144784 116.0
311.151704 482.0
313.233955 87.0
315.119667 48.0
315.253577 412.0
315.267497 284.0
316.306768 35.0
317.206428 42.0
318.220929 365.0
319.22129 231.0
320.22673 28.0
323.222613 35.0
325.228194 29.0
325.245864 58.0
326.074965 57.0
326.117445 46.0
326.142195 84.0
327.151386 13935.0
328.162126 44.0
329.158437 89.0
330.102868 59.0
333.11767 191.0
334.252191 32.0
335.218252 61.0
336.230583 93.0
337.237273 2462.0
339.708155 12.0
341.221096 26.0
343.239958 76.0
343.249018 104.0
344.131649 61.0
345.157349 1815.0
350.633393 64.0
353.174905 68.0
355.250897 121.0
355.267527 12.0
357.262618 69.0
369.311028 3831.0
371.131859 43.0
371.160149 70.0
371.173359 145.0
378.238854 46.0
379.251185 7881.0
385.1998 29.0
386.15595 150.0
387.294501 41.0
389.178383 117.0
389.203493 54.0
391.270304 49.0
397.230049 68.0
397.251539 1060.0
397.265209 2029.0
399.16728 67.0
399.20253 21.0
401.419292 34.0
406.333176 60.0
407.338916 21.0
409.264938 29.0
411.276939 35.0
411.318649 47.0
413.192311 37.0
413.222191 78.0
413.325731 156.0
414.015131 36.0
415.273862 145.0
418.913055 34.0
421.288357 35.0
421.314507 36.0
423.249048 65.0
423.275268 173.0
425.26886 26.0
425.29916 29.0
431.186194 80.0
431.190254 371.0
435.313207 611.0
438.26551 29.0
439.27714 399.0
441.211312 41.0
441.299782 55.0
441.318312 53.0
441.334762 60.0
449.204308 496.0
453.297571 56.0
453.326771 382.0
455.237233 116.0
455.266503 59.0
456.264093 53.0
456.291283 52.0
457.283714 1725.0
457.300474 848.0
465.31888 41.0
466.249151 28.0
467.334902 32.0
469.244933 82.0
469.270423 83.0
470.215214 34.0
483.286144 237.0
483.318434 103.0
485.332045 35.0
494.307822 35.0
495.338553 8916.0
496.361624 90.0
497.272154 65.0
497.377004 34.0
498.242545 36.0
498.308135 64.0
499.294886 29.0
501.284417 39.0
501.306367 96.0
511.307015 295.0
511.331365 180.0
512.313176 60.0
512.335336 254.0
512.377446 133.0
513.355836 1815.0
521.359453 106.0
525.312636 45.0
525.337296 64.0
526.307756 35.0
527.328567 20.0
535.453573 40.0
539.384606 34.0
540.295067 27.0
543.323209 552.0
543.339199 337.0
553.359167 72.0
553.497407 58.0
553.529697 109.0
553.949257 36.0
554.325107 198.0
554.350497 659.0
554.710368 33.0
554.888038 31.0
555.354288 25663.0
557.10325 35.0
557.22807 127.0
557.34605 177.0
557.38072 66.0
557.96366 29.0
558.07707 54.0
559.260291 17.0
559.936932 18.0
561.321693 279.0
581.367118 47.0
581.393058 40.0
599.349071 116.0
599.380262 98.0
599.399422 74.0
601.610363 39.0
615.325884 22.0
615.357504 34.0
617.368795 67.0
617.390705 182.0
622.102379 221.0
632.419166 34.0
641.388473 95.0
641.395913 155.0
649.616689 12.0
659.410887 1929.0
692.400162 29.0
694.438073 159.0
694.466453 170.0

