>compound 
>formula C10H12N4O6
>parentmass 285.083
>ionization [M + H]+
>instrumentation Unknown (LCMS)
>source file:/Users/fanzhoukong/Documents/GitHub/Libgen/data/NIST_MONA/0_unknown_/spectrum.ms
>quality UNKNOWN

>ms2peaks
61.0278 1.929935
69.0327 4.88777
71.0114 1.090833
73.0277 6.901615
85.0276 3.985735
87.0435 1.153765
97.0278 3.251521
103.0355 0.755192
115.0389 2.265576
119.0583 0.629327
131.0469 0.398574
133.049 2.223621
135.0552 0.461506
136.0158 0.419551
149.982 0.587372
150.0881 0.545416
153.0401 100.0
154.0264 1.132788
154.0361 2.370464
154.045 6.880638
155.046 0.629327
157.0298 0.377596

