>compound 
>formula C25H42O5
>parentmass 440.3370454515101
>ionization [M + H3N + H]+
>instrumentation Unknown (LCMS)
>source file:/Users/fanzhoukong/Documents/GitHub/Libgen/data/EAD_PFP/0_unknown_/spectrum.ms
>quality UNKNOWN

>ms2peaks
105.068614 25.0
115.05448 1283.0
116.056991 79.0
116.065441 183.0
117.072331 948.0
118.075062 33.0
119.086342 1521.0
120.091203 44.0
121.075493 47.0
121.089503 79.0
121.101363 303.0
123.077855 57.0
123.094155 55.0
123.118065 97.0
125.097736 36.0
126.043986 42.0
127.052327 193.0
128.062468 870.0
129.072138 429.0
130.075739 88.0
131.088839 89.0
132.02592 30.0
133.103071 42.0
135.108732 41.0
137.097303 41.0
141.072625 1089.0
142.077366 1600.0
143.089196 3628.0
144.097567 658.0
144.610727 35.0
145.102398 7098.0
146.078738 47.0
146.109518 182.0
147.118949 5421.0
148.098469 45.0
149.10397 365.0
149.11473 741.0
149.11952 1373.0
150.10327 31.0
151.055321 115.0
151.087821 120.0
151.113121 291.0
152.064752 1436.0
153.072692 2277.0
154.077883 932.0
155.081483 252.0
155.090023 3432.0
156.094464 1175.0
157.103365 6890.0
158.092135 144.0
158.111835 618.0
159.119816 12028.0
160.081426 43.0
160.112416 58.0
160.124806 256.0
161.135437 5489.0
162.143018 72.0
163.111198 663.0
163.133718 554.0
164.064689 105.0
164.112389 62.0
165.076339 1150.0
166.07973 497.0
167.10135 2282.0
168.091831 264.0
168.095651 542.0
168.555731 24.0
169.103062 4608.0
170.086662 47.0
170.109652 495.0
171.119243 4704.0
172.127953 833.0
173.134484 2536.0
174.102575 31.0
174.141355 70.0
174.146525 106.0
175.126515 682.0
175.147255 1863.0
176.118356 59.0
177.086906 61.0
177.131256 529.0
177.142966 378.0
178.076447 350.0
179.079207 108.0
179.088387 376.0
179.106727 181.0
180.071648 34.0
180.099258 180.0
181.112959 892.0
181.120859 2148.0
182.087219 94.0
182.109689 358.0
183.1224 3450.0
184.11665 108.0
184.1273 409.0
185.132281 4316.0
186.144002 246.0
187.142392 523.0
187.146412 2644.0
188.160923 97.0
189.144483 551.0
189.152573 1661.0
190.104964 35.0
191.092244 51.0
191.115265 184.0
191.132875 215.0
191.143715 481.0
192.087515 58.0
192.106525 57.0
193.096256 138.0
193.112596 390.0
193.122126 384.0
194.111726 251.0
195.121667 305.0
195.132617 1314.0
196.128747 398.0
197.135638 3195.0
198.125819 73.0
198.140979 579.0
199.151669 8910.0
200.13995 51.0
200.15658 186.0
200.86958 33.0
201.16541 3570.0
202.084881 63.0
202.172621 51.0
203.140452 160.0
203.144652 552.0
203.176752 240.0
205.116693 217.0
205.147583 262.0
206.109833 53.0
207.137774 1511.0
208.132944 78.0
208.144254 71.0
209.138995 8655.0
210.131846 41.0
210.146056 171.0
211.149846 6566.0
211.986257 28.0
212.138897 46.0
212.157437 232.0
213.166017 9248.0
214.151168 48.0
214.176988 163.0
215.181719 3672.0
216.149919 60.0
216.177279 87.0
216.191679 52.0
217.15783 411.0
219.115391 45.0
219.129891 121.0
219.148751 291.0
219.160341 145.0
219.171961 254.0
220.122911 26.0
221.154592 1718.0
222.127353 35.0
222.140493 54.0
223.157863 1917.0
224.159954 149.0
225.164284 2415.0
226.176765 1564.0
227.161986 15310.0
228.177436 77.0
228.186316 75.0
228.633446 27.0
229.159587 1905.0
230.151267 47.0
231.143608 110.0
231.174878 917.0
232.144039 72.0
233.131699 32.0
233.155619 268.0
233.163099 258.0
233.188539 162.0
234.02251 33.0
234.10792 25.0
234.1559 32.0
235.16884 1561.0
236.158371 35.0
236.394771 30.0
237.169581 2031.0
238.173902 295.0
238.597402 37.0
239.183363 1993.0
240.188893 60.0
241.199554 5792.0
242.172714 52.0
242.207794 33.0
243.179915 1174.0
244.183096 560.0
245.163776 344.0
245.176046 783.0
245.192926 374.0
246.174097 59.0
247.171107 700.0
248.197878 26.0
249.180409 1191.0
250.264049 55.0
251.17457 115.0
251.18388 732.0
252.18784 76.0
252.36056 25.0
253.196941 11273.0
254.204901 1363.0
255.180472 459.0
255.196112 1348.0
255.218032 186.0
256.226883 121.0
257.163893 80.0
257.192153 228.0
258.173414 34.0
258.201764 40.0
259.173904 7547.0
260.176315 170.0
261.190166 4346.0
262.196456 68.0
263.191997 498.0
264.184617 19.0
265.193468 148.0
265.199848 360.0
266.209058 46.0
267.184919 196.0
267.196119 154.0
267.208939 332.0
268.20592 26.0
269.18865 195.0
269.2192 87.0
270.207021 25.0
271.207931 5257.0
272.188072 74.0
272.218772 260.0
273.187793 2886.0
274.194203 110.0
275.202474 3548.0
277.188685 1485.0
279.190236 96.0
279.218046 304.0
280.219107 47.0
281.218687 846.0
281.233457 1166.0
282.063718 32.0
282.200278 42.0
282.220028 67.0
282.239768 92.0
283.190178 127.0
283.206658 344.0
283.224788 111.0
285.18512 130.0
285.22976 63.0
285.26285 59.0
286.18353 65.0
286.2117 94.0
286.23657 38.0
287.205291 1025.0
289.217622 397.0
289.570922 29.0
291.198513 33.0
291.213563 230.0
292.085174 46.0
293.231474 746.0
294.232115 41.0
295.210905 209.0
295.227725 1243.0
295.242895 1771.0
297.176737 49.0
297.215577 54.0
298.087647 42.0
299.208378 304.0
299.223608 263.0
299.237188 171.0
300.253088 78.0
301.224829 388.0
301.236729 89.0
303.22419 299.0
304.776801 42.0
305.223311 32.0
307.242743 53.0
308.070963 46.0
308.241193 43.0
309.253334 1571.0
310.268844 645.0
311.147775 41.0
311.218615 93.0
312.214855 55.0
313.226546 896.0
313.242166 227.0
314.208607 48.0
314.220777 204.0
315.239177 297.0
317.225118 77.0
317.254778 72.0
318.197709 50.0
319.2488 15699.0
321.226241 374.0
322.145161 42.0
323.246782 51.0
324.699693 50.0
325.227683 100.0
325.254203 59.0
326.047934 43.0
326.223074 40.0
326.235464 84.0
327.239494 2311.0
327.893735 43.0
328.245045 72.0
328.275195 276.0
329.250355 101.0
331.240657 31.0
332.255917 42.0
335.242829 122.0
336.097129 37.0
336.161799 54.0
336.224669 42.0
336.25342 53.0
337.25833 19668.0
339.222131 71.0
339.243771 127.0
340.244112 27.0
341.247712 65.0
342.252813 35.0
342.695163 44.0
343.226714 64.0
343.255774 36.0
344.236514 26.0
345.247835 49.0
349.100987 34.0
351.254978 61.0
351.275178 262.0
353.233279 154.0
353.253519 1225.0
354.25953 127.0
354.27058 50.0
355.268811 3105.0
357.239852 47.0
357.271342 180.0
358.240392 33.0
366.251997 31.0
367.250048 88.0
367.268818 181.0
368.010758 55.0
368.055858 211.0
368.277638 1546.0
368.804219 44.0
369.265279 3451.0
369.280349 40500.0
370.67284 119.0
371.12938 470.0
371.26528 1276.0
371.27471 589.0
371.55791 32.0
371.71276 63.0
373.533801 36.0
385.251128 268.0
386.055259 196.0
386.292049 455.0
387.297759 23777.0
388.3125 54.0
388.85513 35.0
389.260891 56.0
390.287871 107.0
394.893864 1626.0
405.29847 819.0
408.493752 45.0
410.920783 111.0
412.260294 2223.0
417.548107 55.0
419.247328 49.0
420.023939 1513.0
421.90724 54.0
423.325001 53.0
440.30984 59.0
440.33657 178.0
440.35095 73.0

