>compound 
>formula C10H14N2O5
>parentmass 243.097763061523
>ionization [M + H]+
>instrumentation Unknown (LCMS)
>source file:/Users/fanzhoukong/Documents/GitHub/Libgen/data/NIST_MONA/0_unknown_/spectrum.ms
>quality UNKNOWN

>ms2peaks
41.0374 4.53
43.0173 3.5
43.0536 10.13
44.0128 0.94
45.0329 12.08
53.0388 1.42
54.0324 4.37
55.0177 0.87
56.0494 6.5
57.0341 0.45
57.0692 0.51
58.0667 0.78
69.0339 6.58
71.0129 0.61
71.0485 4.3
73.0288 11.7
73.064 0.34
81.0311 2.21
81.0415 1.57
82.0274 4.24
84.0448 5.77
84.0792 0.35
85.0621 0.53
99.0449 7.47
99.2204 0.34
102.0921 1.07
109.0405 7.75
110.0254 19.53
110.0686 0.73
117.055 4.86
117.2848 0.46
123.1203 0.4
127.0509 100.0
127.099 2.82
127.1154 1.68
127.1458 0.47
127.2602 0.6
127.2728 0.59
128.2512 0.37
129.0644 0.35
134.9125 0.5

