>compound 
>formula C19H22O6
>parentmass 369.13085942648
>ionization [M + Na]+
>instrumentation Unknown (LCMS)
>source file:/Users/fanzhoukong/Documents/GitHub/Libgen/data/EAD_PFP/0_unknown_/spectrum.ms
>quality UNKNOWN

>ms2peaks
50.01406 183.0
51.022261 783.0
52.027802 96.0
53.038153 222.0
55.053114 685.0
55.935394 25.0
56.054155 48.0
57.070125 79.0
59.047357 24.0
60.984798 46.0
61.005458 32.0
62.012679 65.0
63.022709 324.0
64.02287 74.0
64.02992 63.0
65.038801 1005.0
66.043621 124.0
67.054542 785.0
68.025463 25.0
68.055363 37.0
68.995223 123.0
69.070923 57.0
70.064474 52.0
71.048615 30.0
71.079995 23.0
73.045846 14.0
74.013547 95.0
75.016457 61.0
75.021547 89.0
76.030388 123.0
77.039089 1506.0
78.042319 297.0
79.05465 860.0
80.053351 192.0
81.068901 541.0
82.065112 34.0
83.083473 92.0
84.088363 20.0
85.008944 21.0
85.056814 48.0
86.015375 24.0
87.022245 23.0
88.021186 44.0
89.036927 298.0
90.044537 69.0
91.056898 1117.0
92.055169 196.0
93.065499 218.0
94.06519 168.0
95.082641 217.0
96.084441 44.0
97.064462 34.0
98.096023 54.0
99.019923 32.0
99.994194 37.0
101.046095 29.0
102.044105 115.0
103.053986 289.0
104.045857 29.0
104.053857 79.0
105.070597 251.0
106.068068 55.0
107.050989 331.0
108.079179 48.0
109.06828 48.0
109.08465 55.0
109.09693 55.0
110.999111 41.0
113.003113 32.0
113.037473 28.0
114.032223 20.0
114.051063 35.0
115.054454 1204.0
116.058025 200.0
117.067005 395.0
118.069716 88.0
119.085247 120.0
120.084738 38.0
121.064688 21.0
121.093788 77.0
122.089749 18.0
123.041969 42.0
123.08 32.0
124.999111 23.0
125.053881 29.0
126.045062 40.0
126.903282 18.0
127.055612 354.0
128.060223 639.0
129.069904 281.0
130.064564 49.0
131.068615 80.0
132.021396 34.0
132.077686 117.0
133.016036 52.0
133.065756 22.0
133.087216 51.0
133.099656 63.0
134.096067 46.0
135.042678 48.0
135.054078 51.0
135.113288 45.0
136.116048 16.0
137.060579 1409.0
138.12349 29.0
139.05416 87.0
140.059821 46.0
141.069112 333.0
142.065662 31.0
142.071512 98.0
143.071603 53.0
143.078633 72.0
143.088003 37.0
144.075204 66.0
145.082314 74.0
145.101194 26.0
145.966255 51.0
146.077545 38.0
146.092925 32.0
147.044076 59.0
147.057156 81.0
147.116556 28.0
148.051956 27.0
149.093187 42.0
149.129067 31.0
150.045638 32.0
151.046878 140.0
151.068538 32.0
152.062319 171.0
153.07268 97.0
154.06693 31.0
155.076581 86.0
156.077322 47.0
157.086172 47.0
158.094573 73.0
159.046914 41.0
159.081504 41.0
159.114854 12.0
160.052894 37.0
161.093145 60.0
161.104325 45.0
163.036126 19.0
163.058626 28.0
164.062167 27.0
165.070028 281.0
166.064568 51.0
166.072148 147.0
167.079829 129.0
168.05372 20.0
168.08419 72.0
169.05592 29.0
169.0814 83.0
169.09286 28.0
170.070031 40.0
170.098151 33.0
171.073102 15.0
171.083352 63.0
171.097452 58.0
171.115402 45.0
172.080392 16.0
172.104812 36.0
173.061013 53.0
173.075173 57.0
173.102243 36.0
173.129313 24.0
174.070254 57.0
175.039654 32.0
175.074664 70.0
175.100574 50.0
175.122614 37.0
176.053345 44.0
177.026946 47.0
177.054326 121.0
178.065976 21.0
178.076436 141.0
179.068717 45.0
179.087067 45.0
180.083468 46.0
181.069448 36.0
181.094498 58.0
182.095139 55.0
182.194289 70.0
183.03359 25.0
183.09191 39.0
184.04355 21.0
185.057641 36.0
185.129601 23.0
186.065142 19.0
187.041892 383.0
188.089703 39.0
189.059624 41.0
189.071744 98.0
189.077124 67.0
189.121594 46.0
190.080654 68.0
191.000175 62.0
191.024545 55.0
191.070585 44.0
192.077996 24.0
192.090216 55.0
192.124176 22.0
192.981926 85.0
193.101706 19.0
193.987557 23.0
194.093987 39.0
195.064188 40.0
195.099778 45.0
196.088938 29.0
196.121889 43.0
196.164409 20.0
197.112259 57.0
197.139769 33.0
198.10651 16.0
199.07701 29.0
199.115711 38.0
199.148891 29.0
200.144101 27.0
201.052892 84.0
201.066792 73.0
202.082093 103.0
203.048313 74.0
203.077623 66.0
203.116713 90.0
204.063004 27.0
204.079804 19.0
204.103594 23.0
205.095665 33.0
205.106895 29.0
206.085925 22.0
207.030626 114.0
208.032617 64.0
208.079247 31.0
209.107837 33.0
210.104878 21.0
211.135609 24.0
212.201679 14.0
213.06306 18.0
213.09023 42.0
213.19464 30.0
215.085461 53.0
216.049112 19.0
217.056793 266.0
217.065443 386.0
218.062453 23.0
219.066104 106.0
219.077714 45.0
219.102354 64.0
220.108385 23.0
221.128375 31.0
222.133206 17.0
223.124227 27.0
224.145297 19.0
225.148138 31.0
227.057159 20.0
227.142799 20.0
228.04134 19.0
229.049871 259.0
230.057671 43.0
231.064692 21.0
231.075112 28.0
233.082343 415.0
235.074215 13.0
235.120785 18.0
237.145476 25.0
239.081887 37.0
239.168227 22.0
240.075058 16.0
240.108438 15.0
241.196549 25.0
242.9249 23.0
243.06538 20.0
243.07761 25.0
245.038021 19.0
245.077911 214.0
247.124913 13.0
247.161863 15.0
248.990254 23.0
249.180424 25.0
251.157505 25.0
253.028627 26.0
253.111227 15.0
254.187747 14.0
255.207088 19.0
257.077519 23.0
258.11836 15.0
259.065101 29.0
259.123451 26.0
259.203901 18.0
261.077802 90.0
263.196764 18.0
265.024425 40.0
265.167955 12.0
267.005626 51.0
267.101696 31.0
267.210556 30.0
268.982987 20.0
269.190298 45.0
270.242448 18.0
273.14409 34.0
273.21373 30.0
273.21859 42.0
276.150782 14.0
277.118583 38.0
277.203393 41.0
281.052815 85.0
282.047296 21.0
283.058347 33.0
284.160368 17.0
287.11404 18.0
287.20035 21.0
289.131041 23.0
291.136692 19.0
291.233672 49.0
293.077184 32.0
295.093115 14.0
297.078796 11.0
299.059298 15.0
301.177289 25.0
301.214669 96.0
305.211372 58.0
305.235332 37.0
307.229043 28.0
309.120744 15.0
313.082717 32.0
313.136427 15.0
315.188798 21.0
315.235768 24.0
317.20598 10.0
319.212091 56.0
319.224351 145.0
321.077042 49.0
323.100634 42.0
323.116504 49.0
323.237994 21.0
325.107625 37.0
327.078276 18.0
327.140286 20.0
333.244171 57.0
333.278141 36.0
335.052792 36.0
335.065342 44.0
336.064882 20.0
336.970583 42.0
337.103673 27.0
337.231383 17.0
341.093966 63.0
341.117496 64.0
341.135596 179.0
351.095312 72.0
351.102642 90.0
351.139353 45.0
351.232983 24.0
353.095254 264.0
368.123584 38.0
369.103475 107.0
369.129815 1912.0

