>compound 
>formula C21H22O7
>parentmass 409.1257740460501
>ionization [M + Na]+
>instrumentation Unknown (LCMS)
>source file:/Users/fanzhoukong/Documents/GitHub/Libgen/data/EAD_PFP/0_unknown_/spectrum.ms
>quality UNKNOWN

>ms2peaks
50.016082 89.0
51.02289 172.0
52.027707 28.0
53.040185 63.0
54.034332 8.0
55.053709 80.0
56.055457 7.0
57.070684 34.0
57.936102 8.0
60.984564 12.0
62.015521 29.0
63.023999 144.0
64.023366 18.0
64.032776 14.0
65.039293 655.0
66.044901 39.0
67.054218 128.0
68.028356 11.0
68.995683 107.0
70.02311 5.0
71.084558 11.0
73.048782 12.0
74.0148 20.0
75.023647 17.0
76.029925 77.0
77.040332 588.0
78.034909 6.0
78.045289 94.0
79.055017 152.0
80.051954 38.0
80.058094 11.0
81.071011 99.0
83.051666 11.0
83.087386 14.0
84.983971 5.0
85.052611 6.0
86.015679 7.0
87.023456 6.0
88.030663 8.0
89.039981 146.0
90.036448 7.0
90.046678 41.0
91.057155 1250.0
92.059183 116.0
92.99394 6.0
93.06102 16.0
94.065438 24.0
95.075235 14.0
95.088605 21.0
95.954113 13.0
96.083702 7.0
97.10232 8.0
97.950747 9.0
98.097197 11.0
98.984065 14.0
99.993412 13.0
101.044309 12.0
102.048247 62.0
103.053164 71.0
104.049022 9.0
105.071749 66.0
106.068206 45.0
107.073424 11.0
108.081341 13.0
109.080678 16.0
109.103188 14.0
111.002313 16.0
113.003198 30.0
113.039648 8.0
114.033355 9.0
115.055573 378.0
116.0602 61.0
117.066008 70.0
118.041025 9.0
118.062315 29.0
119.058572 14.0
119.067122 11.0
119.085292 39.0
120.08048 16.0
120.0837 38.0
121.092737 9.0
121.100287 6.0
122.028075 6.0
122.095174 6.0
123.046322 11.0
123.118052 8.0
125.002397 8.0
126.049454 14.0
126.904362 9.0
127.055592 100.0
128.057979 35.0
128.063509 272.0
129.060966 17.0
129.070976 63.0
130.068974 53.0
130.991191 11.0
131.059601 44.0
131.084291 5.0
132.020219 9.0
132.075378 16.0
132.084378 6.0
133.074726 13.0
133.084896 11.0
133.101856 6.0
135.080191 5.0
135.11775 12.0
137.132745 13.0
139.0552 9.0
140.055078 11.0
141.071325 53.0
141.931303 9.0
142.064372 17.0
143.0738 15.0
143.08552 15.0
144.080947 19.0
145.071545 14.0
145.969652 13.0
147.047469 22.0
147.967167 7.0
149.022424 64.0
149.132474 9.0
150.026252 25.0
150.041852 40.0
151.057519 43.0
152.062126 138.0
153.072464 81.0
154.067921 43.0
155.065398 23.0
155.082468 26.0
156.061186 10.0
156.083196 43.0
157.068743 10.0
157.084703 7.0
157.092063 17.0
158.098031 16.0
159.049118 11.0
159.078768 12.0
159.117078 16.0
160.099725 5.0
160.114625 9.0
161.096613 13.0
161.133903 11.0
162.04794 5.0
162.12901 6.0
162.999578 9.0
163.054598 20.0
163.148447 17.0
164.056855 6.0
164.063125 16.0
165.072252 163.0
166.05797 6.0
166.0668 31.0
166.07437 40.0
167.036467 12.0
167.073197 33.0
168.077535 29.0
168.091504 9.0
169.069612 10.0
169.091272 21.0
169.103992 7.0
170.074829 12.0
170.092719 10.0
171.079177 22.0
171.100957 12.0
171.117617 8.0
172.114764 10.0
173.068381 10.0
173.131541 10.0
174.045339 9.0
175.040596 214.0
176.062074 25.0
177.057851 8.0
177.133471 6.0
177.164761 32.0
178.074738 19.0
178.082598 34.0
179.064386 12.0
179.073576 19.0
179.087996 11.0
180.088343 11.0
181.074311 19.0
181.084871 13.0
182.093398 17.0
183.039805 8.0
183.094145 7.0
184.052423 19.0
185.0612 59.0
186.099447 6.0
187.038765 13.0
187.056185 9.0
189.05782 13.0
189.06995 26.0
190.077477 13.0
191.002405 10.0
191.070105 45.0
192.077532 14.0
192.98279 38.0
193.073989 8.0
194.092137 7.0
194.982984 7.0
195.121174 6.0
196.119991 10.0
197.059489 6.0
197.080099 13.0
197.131009 6.0
198.067386 10.0
199.037784 16.0
199.077874 32.0
200.067351 9.0
201.056528 11.0
201.170438 6.0
202.074586 16.0
203.071493 22.0
203.146893 8.0
204.082041 17.0
204.090441 11.0
205.083878 6.0
205.193318 6.0
207.032883 51.0
208.0391 18.0
208.09986 6.0
209.032178 9.0
209.118587 8.0
211.149252 7.0
213.055297 51.0
214.164894 18.0
215.083402 11.0
216.081589 12.0
217.077797 8.0
217.085007 31.0
218.090724 10.0
219.079941 6.0
221.082546 7.0
221.105856 5.0
223.092811 10.0
227.069751 325.0
229.046185 11.0
229.194475 6.0
230.091113 6.0
231.08181 6.0
233.108515 6.0
234.125182 7.0
235.13355 5.0
237.081344 7.0
237.111504 8.0
238.254781 13.0
241.087744 10.0
242.975989 5.0
242.986689 7.0
243.211209 8.0
245.083224 646.0
249.054343 103.0
251.047998 12.0
251.068168 63.0
252.999713 6.0
257.230552 6.0
259.243977 7.0
261.98621 9.0
263.098917 6.0
265.021882 20.0
265.047392 9.0
266.998286 10.0
267.022276 10.0
267.062306 13.0
268.079854 6.0
271.244065 11.0
272.251753 5.0
274.991916 6.0
277.21542 5.0
279.153225 8.0
280.162372 12.0
281.05178 59.0
281.06655 23.0
282.051167 10.0
283.049055 16.0
283.167734 7.0
287.093024 91.0
295.149213 6.0
297.077678 15.0
299.056463 6.0
307.186632 6.0
309.078197 1364.0
311.260651 9.0
317.213455 6.0
322.114013 5.0
325.069245 22.0
326.80242 7.0
327.307329 10.0
330.076152 10.0
331.226879 18.0
335.128539 10.0
335.221798 5.0
349.101432 40.0
353.137952 44.0
365.100291 6.0
365.13588 6.0
377.134409 6.0
379.115514 6.0
381.126679 9.0
391.118873 5.0
391.299082 7.0
391.335882 10.0
391.359172 6.0
407.103331 6.0
407.781549 9.0
408.121878 8.0
409.131796 2135.0

