>compound 
>formula C14H20O4
>parentmass 253.14344012288
>ionization [M + H]+
>instrumentation Unknown (LCMS)
>source file:/Users/fanzhoukong/Documents/GitHub/Libgen/data/EAD_PFP/0_unknown_/spectrum.ms
>quality UNKNOWN

>ms2peaks
50.014643 300.0
51.022146 597.0
52.029098 117.0
53.039471 217.0
54.035073 27.0
55.055186 1166.0
56.046708 18.0
57.032281 45.0
57.052991 277.0
59.048756 125.0
60.984691 66.0
62.014893 55.0
63.022606 151.0
65.035541 151.0
65.038701 1298.0
66.041933 83.0
67.049636 60.0
67.054446 596.0
68.99757 47.0
69.068381 327.0
70.056183 23.0
71.034485 55.0
71.050175 107.0
74.016833 51.0
75.008735 50.0
76.028598 65.0
77.03986 1911.0
78.042233 58.0
79.052825 967.0
81.06529 160.0
81.0697 1157.0
82.040183 31.0
83.085185 300.0
85.04228 81.0
85.06216 61.0
86.013472 19.0
87.025815 19.0
89.03592 187.0
90.044462 44.0
91.054955 1422.0
92.052277 39.0
92.059797 126.0
93.06637 550.0
94.038522 31.0
94.059422 40.0
95.055825 214.0
95.064425 347.0
95.073025 262.0
96.062287 25.0
97.06439 122.0
98.016412 15.0
98.971125 36.0
98.984765 54.0
99.989227 19.0
101.04898 17.0
102.048002 122.0
103.052935 298.0
104.059787 106.0
105.06953 929.0
107.051944 293.0
107.058024 396.0
108.056717 31.0
109.063109 86.0
109.084589 282.0
111.042404 203.0
112.005547 19.0
112.998889 42.0
113.039499 35.0
115.053344 550.0
116.062187 96.0
117.069069 648.0
118.063272 69.0
119.046714 42.0
119.065954 218.0
119.086264 1249.0
120.077167 27.0
121.064639 721.0
121.102369 48.0
122.072382 28.0
123.046264 1003.0
124.050196 17.0
125.058219 43.0
125.061509 108.0
125.080129 53.0
126.047211 41.0
127.054464 220.0
128.061286 638.0
129.070959 767.0
130.058921 20.0
130.070091 63.0
131.084284 603.0
132.050626 17.0
132.057376 28.0
133.073609 472.0
133.079269 754.0
133.099609 164.0
134.072211 25.0
135.080224 291.0
135.085914 162.0
137.059399 978.0
139.070304 48.0
140.047036 20.0
141.059759 51.0
141.069089 125.0
142.076151 112.0
143.084474 248.0
144.069286 55.0
144.084576 30.0
145.085818 78.0
145.097609 264.0
146.071581 32.0
147.090383 84.0
147.107013 627.0
147.116523 685.0
148.908998 17.0
149.069228 150.0
149.093148 183.0
149.130228 27.0
151.086583 431.0
151.111883 184.0
152.059876 108.0
153.054468 47.0
153.061748 153.0
154.068111 78.0
155.070463 54.0
155.079003 100.0
156.091976 187.0
157.100878 1285.0
158.097001 36.0
159.083943 49.0
159.093833 109.0
159.114833 107.0
160.077666 35.0
160.090056 30.0
161.054588 61.0
161.113018 86.0
161.131668 633.0
163.084883 47.0
163.104903 61.0
163.111163 76.0
165.056178 912.0
166.07465 52.0
167.076013 161.0
168.082915 52.0
169.063558 34.0
169.087758 44.0
169.103048 37.0
170.09687 34.0
171.119223 1083.0
172.800777 19.0
173.097068 111.0
173.130598 17.0
174.10385 22.0
175.114823 1484.0
176.123535 16.0
177.092128 149.0
178.06858 18.0
178.07513 64.0
179.075262 184.0
180.083465 17.0
181.086597 57.0
181.106358 54.0
182.08457 31.0
183.069372 62.0
184.032925 26.0
187.115582 32.0
189.129677 2053.0
190.07931 42.0
191.096312 137.0
191.112562 56.0
193.124847 1180.0
193.978009 30.0
194.094 23.0
195.079262 15.0
195.112092 22.0
197.064127 31.0
197.104017 30.0
199.112942 234.0
201.086227 23.0
203.070662 16.0
204.082604 21.0
205.112497 37.0
206.094379 32.0
207.033462 17.0
207.134972 248.0
208.034044 21.0
208.089144 22.0
209.022867 23.0
209.122017 24.0
210.127619 24.0
211.134202 59.0
217.124627 751.0
220.125844 26.0
223.130091 19.0
229.088456 17.0
230.094829 20.0
233.116766 14.0
235.125321 19.0
235.135831 808.0
242.98599 34.0
250.97283 19.0
253.143996 596.0

