>compound 
>formula C20H24O3
>parentmass 313.17982563223006
>ionization [M + H]+
>instrumentation Unknown (LCMS)
>source file:/Users/fanzhoukong/Documents/GitHub/Libgen/data/EAD_PFP/0_unknown_/spectrum.ms
>quality UNKNOWN

>ms2peaks
77.037038 45.0
97.032091 32.0
102.047486 24.0
105.071998 39.0
115.047449 236.0
115.054809 985.0
116.064706 49.0
117.064173 80.0
117.072653 173.0
119.085587 74.0
121.069322 136.0
125.052 31.0
126.049767 162.0
127.044875 77.0
127.057015 212.0
127.066955 52.0
128.026152 30.0
128.062732 419.0
128.082682 39.0
129.077989 41.0
130.872714 24.0
131.086863 100.0
133.067157 1388.0
135.068002 67.0
135.081662 109.0
137.060836 54.0
139.05325 48.0
139.07866 1187.0
140.064697 64.0
140.071647 91.0
140.496316 55.0
140.621746 22.0
141.072834 3625.0
141.565433 29.0
142.079911 1900.0
142.63042 67.0
143.088239 3573.0
143.591387 50.0
144.061306 3041.0
144.588564 27.0
144.602684 30.0
145.069543 17455.0
145.850501 38.0
146.05763 57.0
146.0742 940.0
146.22105 39.0
146.424859 39.0
146.580188 57.0
146.597988 38.0
146.606288 80.0
146.616968 52.0
146.868538 27.0
147.084687 32910.0
148.021164 36.0
148.059314 41.0
148.090324 102.0
148.584263 72.0
148.599783 93.0
149.099361 29423.0
149.63214 87.0
149.67888 94.0
149.859909 78.0
150.048249 825.0
150.096238 37.0
150.400038 38.0
150.599527 40.0
150.704147 28.0
151.057906 2256.0
151.072356 455.0
151.561604 45.0
151.744954 47.0
152.066143 14506.0
152.583611 76.0
153.07528 18168.0
153.797278 52.0
154.073177 208.0
154.080477 2619.0
154.720745 39.0
155.088954 12696.0
155.760662 26.0
156.098291 855.0
156.34928 78.0
156.53921 35.0
156.56005 65.0
157.069148 20286.0
157.862016 53.0
158.077485 3472.0
158.468154 28.0
158.548324 50.0
159.086593 25436.0
159.732221 37.0
160.07288 82.0
160.09271 366.0
160.399019 37.0
160.842238 43.0
161.098267 10552.0
161.772885 36.0
162.033394 56.0
162.050854 60.0
162.069554 36.0
162.105724 47.0
162.327813 34.0
162.497593 26.0
162.848682 28.0
163.097551 515.0
163.112571 6984.0
163.699879 35.0
164.064808 1054.0
164.332188 45.0
164.525637 65.0
164.550767 36.0
164.797146 34.0
164.838656 55.0
165.072675 27999.0
166.079842 4260.0
167.08628 8386.0
167.572888 38.0
168.061457 387.0
168.075427 1215.0
168.461736 70.0
168.515145 68.0
168.539315 52.0
169.072594 19673.0
169.721562 25.0
170.075261 9615.0
170.49712 95.0
170.54188 73.0
170.694149 26.0
171.084748 30402.0
172.093345 1477.0
172.434064 35.0
172.498394 48.0
172.538274 59.0
172.763523 58.0
173.099772 22189.0
173.704761 49.0
174.109119 2881.0
174.533348 56.0
175.116217 28653.0
176.050824 112.0
176.066424 915.0
176.769042 25.0
177.089591 3606.0
178.081738 6910.0
179.088445 12630.0
179.728763 36.0
180.092732 691.0
180.680851 35.0
181.073469 15471.0
182.077997 6192.0
182.486685 78.0
182.495955 147.0
182.538305 43.0
182.636275 47.0
183.086664 39242.0
183.716822 61.0
184.082141 198.0
184.090121 4993.0
184.50239 54.0
184.757959 44.0
185.098988 34276.0
185.751286 28.0
186.106595 4715.0
186.642883 40.0
187.103562 208.0
187.115612 7402.0
187.6775 67.0
187.85739 27.0
188.089729 67.0
188.111229 125.0
188.121969 172.0
188.513178 30.0
188.546788 28.0
188.608678 46.0
188.741887 32.0
189.132396 17836.0
189.887574 34.0
190.082024 1430.0
190.449563 43.0
191.088201 4265.0
192.098388 5278.0
193.089455 414.0
193.103065 4709.0
193.848413 61.0
194.080342 2575.0
194.476321 65.0
194.77015 38.0
195.087449 13744.0
196.093046 20442.0
196.873004 38.0
197.099863 28863.0
198.092711 177.0
198.107881 1861.0
198.40719 21.0
198.746779 23.0
198.901488 27.0
199.115688 20787.0
199.921015 98.0
200.124675 1170.0
200.375604 38.0
201.107042 828.0
201.116762 1236.0
201.125092 2851.0
202.076489 405.0
202.091809 190.0
202.101559 168.0
202.123839 91.0
202.816617 71.0
203.067826 65.0
203.081766 153.0
203.092936 452.0
203.104106 581.0
203.140406 357.0
203.577665 29.0
204.093763 192.0
204.113333 58.0
205.0872 207.0
205.09843 825.0
206.066178 85.0
206.083058 138.0
206.098528 125.0
206.106968 285.0
206.401007 34.0
206.453087 53.0
207.122205 20704.0
207.864452 27.0
208.111692 872.0
208.123002 7774.0
209.102109 14837.0
210.109076 19340.0
211.107073 12873.0
211.922011 29.0
212.10173 304.0
212.11885 443.0
212.407149 34.0
212.439989 58.0
212.565659 36.0
213.130187 22481.0
214.060785 54.0
214.131024 140.0
214.138194 416.0
214.402054 30.0
215.147152 6327.0
215.6561 49.0
215.85612 40.0
216.086459 60.0
216.116709 41.0
216.141179 141.0
216.148379 118.0
216.730627 57.0
216.799857 48.0
217.118746 742.0
217.128866 496.0
217.136066 432.0
217.149046 322.0
218.065243 60.0
218.073933 76.0
218.085493 85.0
218.104313 69.0
218.124553 135.0
218.136143 163.0
219.08194 288.0
219.08918 442.0
219.10225 340.0
219.13559 78.0
220.074857 176.0
220.095197 1093.0
220.423756 37.0
221.083105 102.0
221.100574 492.0
221.129724 319.0
222.073212 87.0
222.105332 383.0
222.68386 43.0
223.116759 17563.0
223.714167 104.0
224.124636 6891.0
224.391625 93.0
224.627944 64.0
224.798294 25.0
224.820324 55.0
225.130353 62103.0
226.14127 552.0
226.15159 332.0
226.20904 159.0
226.29156 113.0
226.399149 92.0
226.406519 35.0
226.425679 102.0
226.438959 78.0
226.645359 80.0
226.844508 50.0
227.147087 18037.0
227.800125 57.0
228.153624 2283.0
229.089752 5919.0
230.094649 81.0
230.754897 156.0
231.107706 38.0
233.10311 55.0
233.12554 48.0
235.105574 581.0
235.116104 9028.0
236.070891 87.0
236.123571 102.0
237.104549 1194.0
237.112078 1491.0
237.125658 606.0
238.114766 1270.0
238.132906 1575.0
238.698614 39.0
239.133183 1012.0
239.146823 1685.0
239.401402 49.0
240.11886 45.0
240.1477 77.0
241.108107 304.0
241.129387 466.0
241.150687 555.0
241.159817 1095.0
242.096324 44.0
243.115571 444.0
243.133901 2766.0
243.69481 53.0
244.129308 70.0
245.114506 101.0
245.125225 109.0
245.134425 93.0
245.157435 65.0
246.712141 69.0
247.11698 64.0
247.651638 132.0
248.018667 55.0
248.211557 101.0
248.586736 43.0
249.127614 89.0
249.143064 69.0
249.161624 224.0
250.132111 52.0
251.123108 319.0
251.135528 748.0
252.106725 95.0
252.120725 455.0
252.137845 1161.0
252.466144 41.0
252.584464 44.0
252.685674 55.0
253.129673 26745.0
254.0891 81.0
254.10315 96.0
254.11876 153.0
254.1297 200.0
254.15938 100.0
254.185929 103.0
254.378069 28.0
254.603108 36.0
255.087887 337.0
255.105107 2230.0
256.071424 40.0
256.116864 154.0
256.138834 38.0
256.458753 38.0
257.103921 123.0
257.121221 315.0
258.349498 14.0
259.142095 74.0
259.156285 72.0
260.580721 16.0
261.13132 46.0
261.712608 46.0
262.123227 63.0
262.147027 56.0
262.242186 67.0
262.932704 39.0
263.147214 40.0
263.164694 52.0
263.961451 45.0
264.155661 39.0
265.124588 65.0
265.134168 207.0
265.142138 277.0
265.158098 251.0
266.124035 57.0
266.155985 115.0
266.186385 66.0
266.291885 48.0
267.179822 26681.0
267.93293 81.0
268.165509 82.0
268.187969 138.0
268.377299 51.0
269.114417 425.0
269.138527 607.0
269.149786 596.0
269.189946 181.0
269.622475 29.0
270.113314 137.0
270.137454 1211.0
270.416083 53.0
270.591702 61.0
271.139861 32669.0
272.034238 102.0
272.131188 60.0
272.169978 39.0
272.435087 30.0
272.574157 64.0
273.056325 181.0
273.227965 33.0
273.598904 26.0
273.639394 27.0
274.599571 30.0
274.72295 28.0
275.01531 29.0
275.836317 28.0
277.128004 105.0
277.168773 640.0
277.970131 12.0
278.609109 16.0
279.111338 54.0
279.135868 107.0
279.170238 72.0
280.131875 111.0
280.148255 131.0
280.158085 71.0
281.104982 167.0
281.132902 848.0
281.671911 54.0
282.081449 38.0
282.092959 182.0
282.102839 177.0
282.120939 117.0
283.057947 22.0
283.089256 37.0
283.117276 142.0
283.142026 303.0
284.136863 136.0
284.143453 210.0
284.171533 47.0
285.1682 187.0
285.18142 403.0
285.19134 588.0
286.967575 56.0
287.538714 12.0
289.403848 12.0
292.37283 16.0
294.161155 54.0
295.180202 5126.0
296.152119 40.0
297.161116 2919.0
298.078783 56.0
298.094013 77.0
298.153213 116.0
298.176893 106.0
299.579169 12.0
303.462618 37.0
304.126826 12.0
307.189077 25.0
311.169776 34.0
312.115723 32.0
312.141693 63.0
312.160713 85.0
312.184943 56.0
312.281893 31.0
313.18619 34826.0

