>compound 
>formula C54H87NO21
>parentmass 1108.5662798194098
>ionization [M + Na]+
>instrumentation Unknown (LCMS)
>source file:/Users/fanzhoukong/Documents/GitHub/Libgen/data/EAD_PFP/0_unknown_/spectrum.ms
>quality UNKNOWN

>ms2peaks
110.979772 11.0
114.025185 11.0
115.056845 233.0
116.054096 41.0
117.065187 109.0
118.066828 49.0
119.068458 24.0
120.078609 86.0
121.10058 40.0
126.045404 84.0
127.051544 114.0
128.059465 159.0
129.066916 111.0
130.077197 81.0
130.988237 38.0
131.081317 78.0
132.066798 22.0
150.042482 68.0
151.048543 63.0
152.056743 75.0
152.059163 233.0
153.064664 211.0
154.074705 93.0
155.056326 105.0
156.038626 36.0
156.082686 47.0
157.016677 32.0
157.087867 75.0
158.093828 74.0
159.106699 54.0
161.11976 63.0
162.046231 32.0
163.039142 24.0
164.055142 74.0
165.068023 170.0
166.062584 57.0
167.067695 68.0
168.066955 87.0
169.080666 42.0
171.026248 377.0
172.033408 34.0
173.104089 31.0
175.146511 26.0
176.068222 29.0
177.058802 59.0
177.160492 34.0
178.071793 105.0
179.082414 123.0
180.057765 26.0
180.069595 32.0
181.073985 55.0
182.077226 46.0
183.088527 26.0
184.113268 20.0
186.071089 23.0
186.124549 31.0
188.062111 27.0
189.064271 40.0
189.161271 27.0
190.066422 24.0
190.999443 49.0
191.076623 47.0
192.077274 35.0
192.981204 80.0
194.093275 36.0
195.112746 39.0
197.074397 11.0
198.071328 24.0
199.083199 22.0
201.16331 21.0
202.075801 39.0
204.077683 95.0
204.086073 260.0
206.093644 90.0
207.029925 257.0
208.047446 37.0
209.010806 26.0
211.053758 87.0
213.070929 20.0
215.078991 42.0
217.093593 39.0
218.097913 40.0
222.091616 13.0
222.097456 28.0
223.123507 18.0
226.065589 30.0
229.068442 25.0
235.165136 19.0
242.983752 25.0
247.121145 20.0
248.178686 27.0
254.07774 46.0
258.097194 12.0
264.077268 12.0
265.022129 65.0
266.99695 25.0
268.076911 28.0
270.092013 16.0
273.056005 21.0
281.053781 89.0
282.053172 38.0
283.077442 68.0
287.070205 38.0
296.067622 14.0
299.134885 12.0
300.101405 45.0
303.070068 424.0
305.075529 116.0
313.118445 65.0
325.220014 38.0
329.198197 12.0
333.11477 12.0
335.089772 12.0
336.130673 72.0
341.015526 16.0
342.118127 58.0
345.112549 40.0
346.11237 12.0
347.095401 280.0
349.109562 101.0
354.139106 29.0
356.095928 31.0
358.113749 66.0
359.09507 74.0
360.100081 101.0
361.113931 95.0
365.104934 11.0
375.087362 31.0
376.089773 22.0
377.104943 203.0
379.120325 56.0
389.105743 130.0
405.092855 40.0
405.100725 90.0
407.118306 74.0
415.118982 39.0
419.110405 14.0
431.115854 40.0
432.115145 22.0
433.131906 91.0
446.098286 12.0
448.142777 53.0
449.132528 44.0
450.160789 109.0
451.25887 45.0
462.153348 190.0
462.155458 479.0
463.175319 29.0
465.35364 11.0
468.170622 219.0
474.239597 39.0
486.259296 12.0
488.133987 169.0
490.153249 167.0
491.16228 131.0
492.16799 112.0
506.133361 17.0
506.146581 313.0
508.158543 123.0
508.169593 151.0
530.282919 12.0
538.353295 12.0
548.281463 30.0
562.388654 35.0
566.288987 16.0
594.291078 41.0
608.317158 12.0
609.373429 23.0
621.400108 22.0
622.389489 37.0
623.37723 169.0
624.40494 55.0
630.266635 38.0
637.42881 12.0
639.389202 128.0
641.407083 45.0
642.283184 12.0
664.415101 56.0
665.428041 28.0
667.403133 28.0
669.383664 42.0
669.401364 112.0
680.387763 12.0
682.433544 30.0
686.400767 12.0
692.386062 20.0
696.325215 65.0
697.305326 100.0
697.326016 60.0
698.335226 984.0
699.332297 35.0
710.338655 131.0
711.341586 60.0
712.350497 41.0
716.73667 12.0
723.442605 12.0
724.438946 65.0
736.408435 38.0
748.438534 12.0
750.452576 46.0
751.453916 27.0
752.434387 41.0
754.456489 12.0
767.462719 16.0
768.453569 19.0
777.386616 12.0
782.45327 28.0
784.479641 43.0
794.493259 13.0
796.463231 33.0
808.43181 13.0
812.442123 20.0
825.461052 24.0
825.483582 32.0
826.474603 267.0
828.475345 49.0
842.468765 123.0
844.480237 103.0
857.488487 21.0
870.468966 28.0
871.463477 28.0
872.470128 134.0
886.472879 21.0
886.493269 295.0
898.495168 106.0
900.481259 91.0
900.495969 351.0
900.537099 177.0
901.51336 1340.0
902.849241 54.0
910.486087 31.0
912.529788 13.0
914.48981 34.0
916.490541 41.0
928.49611 64.0
928.51698 49.0
930.497152 41.0
930.529982 31.0
943.490262 20.0
944.495512 96.0
945.504363 77.0
945.525413 205.0
946.513704 456.0
954.82297 11.0
956.491611 28.0
957.506812 61.0
958.519573 471.0
959.532814 36.0
960.540505 13.0
973.496444 32.0
974.502305 319.0
974.514575 416.0
976.524767 79.0
986.536134 13.0

