>compound 
>formula C10H12N2O
>parentmass 177.102249145508
>ionization [M + H]+
>instrumentation Unknown (LCMS)
>source file:/Users/fanzhoukong/Documents/GitHub/Libgen/data/NIST_MONA/0_unknown_/spectrum.ms
>quality UNKNOWN

>ms2peaks
51.02245 5.7
53.03815 2.5
54.03342 4.3
55.01728 6.5
63.02256 1.4
65.03852 38.6
67.04057 11.2
68.04894 3.0
77.03844 35.4
78.04433 5.5
79.04146 3.1
79.0543 22.1
80.05022 6.2
81.05224 1.4
89.0382 8.5
90.04646 7.0
91.05418 19.9
92.0511 2.8
93.03362 3.4
93.05691 5.1
94.04112 6.9
95.04821 1.4
95.05976 1.7
103.0539 17.4
104.0501 7.4
105.0338 1.9
105.0696 28.3
106.0413 1.3
106.0415 2.0
106.0689 3.7
107.0495 5.2
115.0546 100.0
116.0557 13.4
116.0559 13.4
117.0574 67.8
118.0629 7.6
119.068 1.3
120.0445 1.5
120.0809 2.9
128.0597 4.1
130.0654 24.8
131.0494 7.9
131.0728 14.2
132.0517 3.0
132.0531 2.4
132.0808 13.5
133.0531 18.5
133.087 22.3
134.0591 4.0
140.05 3.7
141.0575 5.8
142.0651 9.4
143.0733 15.5
144.0793 5.5
145.0527 2.5
145.0899 1.4
146.0605 5.2
147.0677 4.0
148.0753 1.4
158.0607 4.8
159.0686 23.3
160.076 64.9
161.0797 7.9
162.0913 3.7
175.0872 1.9
177.1031 13.3
178.1062 2.2

