>compound 
>formula C42H64O19
>parentmass 895.39340083455
>ionization [M + Na]+
>instrumentation Unknown (LCMS)
>source file:/Users/fanzhoukong/Documents/GitHub/Libgen/data/EAD_PFP/0_unknown_/spectrum.ms
>quality UNKNOWN

>ms2peaks
50.014776 119.0
51.023675 293.0
52.022864 28.0
52.031344 62.0
53.038883 91.0
54.034473 13.0
55.053852 207.0
56.047561 18.0
57.07013 22.0
58.028789 6.0
60.984037 81.0
62.014996 36.0
63.022705 202.0
64.028354 43.0
65.038793 1036.0
66.042822 152.0
67.055331 199.0
68.023031 37.0
68.030301 27.0
68.99521 140.0
74.014366 22.0
75.013895 52.0
77.035623 265.0
77.039923 969.0
78.042292 61.0
79.053751 159.0
80.05244 88.0
81.07063 78.0
82.043779 21.0
82.060639 23.0
83.073618 18.0
85.023356 13.0
86.014425 15.0
87.024025 13.0
89.039653 175.0
90.043562 24.0
91.053111 1380.0
92.05606 167.0
93.055049 26.0
93.060719 71.0
94.067989 70.0
95.059668 64.0
95.084498 78.0
96.078627 20.0
97.028696 12.0
97.948545 12.0
99.007194 12.0
102.047012 74.0
103.049941 83.0
104.05079 33.0
105.070529 142.0
106.059918 17.0
107.086388 25.0
111.000064 36.0
113.001983 73.0
114.035282 45.0
115.055421 385.0
116.04949 36.0
116.05582 52.0
117.059499 82.0
118.065368 51.0
119.064847 24.0
120.055657 11.0
120.083567 57.0
121.102316 12.0
122.104805 14.0
125.037352 9.0
126.044961 27.0
126.904281 18.0
127.055511 137.0
128.05347 53.0
128.06123 197.0
129.059779 41.0
129.070909 64.0
130.058858 34.0
130.067788 60.0
130.988897 58.0
131.057297 37.0
132.019026 12.0
132.080946 30.0
133.074675 18.0
134.093695 11.0
139.0471 31.0
140.05159 23.0
141.053859 25.0
141.070159 52.0
142.058538 41.0
142.072548 38.0
143.066777 26.0
144.078586 21.0
144.082126 58.0
145.079815 26.0
146.077394 26.0
146.972674 29.0
147.963633 25.0
150.047901 20.0
151.05277 58.0
152.060979 132.0
153.066469 80.0
154.064348 58.0
154.077718 37.0
155.063037 55.0
155.074007 35.0
156.082056 49.0
157.065155 18.0
157.093385 19.0
158.059934 12.0
158.093184 17.0
159.092463 26.0
161.116612 28.0
162.109171 19.0
162.99345 33.0
163.05347 26.0
164.044439 23.0
164.060749 36.0
165.067338 112.0
166.068197 33.0
167.064477 32.0
167.073327 49.0
168.076416 28.0
169.060835 27.0
170.081374 37.0
170.095434 29.0
174.99672 15.0
176.045379 14.0
176.064859 15.0
177.064568 12.0
178.073637 39.0
178.088027 32.0
179.084256 23.0
180.085916 31.0
180.991505 20.0
181.078495 24.0
182.084374 34.0
182.188814 16.0
183.070513 11.0
185.038781 19.0
188.063979 13.0
189.067508 50.0
190.064257 15.0
191.001326 58.0
191.075786 15.0
192.079165 13.0
192.980355 71.0
193.094675 25.0
193.991434 16.0
195.095473 22.0
196.101082 35.0
199.121029 12.0
200.125879 18.0
201.040178 31.0
202.067957 21.0
203.050876 31.0
204.082365 26.0
205.085614 24.0
206.089904 20.0
207.031813 82.0
208.030972 24.0
208.100222 15.0
209.021211 15.0
212.995628 10.0
215.088086 26.0
218.101283 15.0
223.121039 14.0
225.042057 19.0
226.043927 12.0
226.083707 20.0
233.065621 15.0
242.984162 40.0
245.06228 10.0
250.964745 13.0
257.05994 16.0
259.075839 55.0
261.980496 12.0
263.142425 6.0
265.017724 40.0
266.024963 16.0
267.002132 33.0
268.99712 11.0
271.083428 18.0
273.104937 18.0
275.075425 14.0
281.05083 117.0
282.051889 32.0
283.049758 39.0
287.072185 12.0
288.170354 6.0
300.084744 10.0
303.068661 26.0
319.069958 27.0
319.099688 79.0
324.210553 11.0
329.082919 22.0
343.097497 18.0
345.120046 13.0
347.095604 145.0
353.207109 22.0
361.101082 20.0
363.09006 480.0
364.0969 54.0
365.105109 145.0
371.217683 13.0
389.102008 37.0
394.212384 7.0
405.134335 403.0
421.130421 51.0
423.141129 10.0
433.142131 13.0
439.210296 31.0
439.226716 35.0
447.137569 13.0
449.132527 12.0
467.227822 18.0
477.160284 32.0
479.173892 28.0
493.14418 37.0
493.15724 75.0
507.169618 35.0
511.221525 13.0
519.172848 6.0
523.169245 592.0
525.183343 26.0
539.267251 15.0
553.274809 120.0
554.326018 15.0
555.288237 24.0
569.274245 17.0
571.290844 27.0
583.299384 11.0
598.271291 30.0
599.28044 132.0
613.304298 28.0
640.288345 3.0
643.273813 26.0
645.253061 56.0
645.270461 217.0
669.271721 6.0
687.329685 21.0
701.307213 16.0
703.326992 13.0
715.320632 68.0
717.34736 19.0
731.323298 52.0
732.319697 12.0
733.335386 66.0
760.325043 16.0
761.343723 243.0
769.322236 31.0
771.342374 25.0
775.344261 25.0
783.390094 29.0
789.320929 24.0
797.388982 21.0
805.395195 15.0
811.35284 21.0
811.38628 17.0
819.341663 12.0
835.37741 19.0
836.382839 15.0
837.374728 22.0
837.386078 29.0
838.375697 13.0
847.3857 15.0
849.385888 27.0
850.382587 26.0
851.408466 82.0
863.364026 32.0
864.342965 39.0
865.359934 55.0
865.383004 200.0
866.383243 177.0
867.386973 69.0
867.447573 15.0
877.328614 23.0
877.389524 19.0
890.443163 24.0
892.350141 15.0
893.383411 175.0
894.38804 303.0
895.399029 4443.0

