>compound 
>formula C19H24O5
>parentmass 355.15159487137004
>ionization [M + Na]+
>instrumentation Unknown (LCMS)
>source file:/Users/fanzhoukong/Documents/GitHub/Libgen/data/EAD_PFP/0_unknown_/spectrum.ms
>quality UNKNOWN

>ms2peaks
126.048636 38.0
127.054775 168.0
128.061604 169.0
129.064592 47.0
130.064821 122.0
131.07 72.0
132.067809 40.0
133.012908 40.0
133.102168 87.0
134.099707 49.0
135.085066 72.0
137.091784 103.0
139.061311 50.0
140.05193 40.0
141.072819 109.0
142.061218 45.0
143.008557 51.0
145.102585 25.0
146.992013 50.0
147.117943 33.0
163.035025 40.0
164.062304 50.0
164.875163 37.0
165.070183 184.0
165.078983 175.0
166.067232 33.0
166.072282 73.0
167.08251 113.0
168.056399 33.0
168.081809 55.0
169.086628 133.0
170.082947 27.0
172.112655 43.0
173.090774 22.0
175.149962 125.0
176.061261 35.0
177.03487 54.0
177.060949 61.0
178.075228 112.0
179.060947 118.0
179.075367 100.0
181.070865 44.0
181.119645 70.0
182.078054 36.0
183.093323 37.0
185.116361 94.0
185.135021 39.0
186.130709 25.0
187.150498 58.0
189.073156 97.0
189.144556 65.0
191.002934 38.0
191.999333 72.0
192.078073 65.0
193.066362 91.0
193.982151 23.0
194.096781 81.0
194.98079 28.0
195.08477 30.0
195.17235 24.0
196.095859 33.0
197.027037 64.0
199.071515 571.0
200.054064 33.0
202.073772 61.0
203.105571 73.0
204.08402 62.0
204.1428 43.0
205.066219 66.0
205.195308 12.0
207.037696 95.0
207.108186 50.0
209.996983 27.0
211.057332 32.0
213.15172 27.0
215.085428 41.0
216.085096 43.0
217.160685 29.0
218.069664 32.0
219.086373 38.0
220.080742 38.0
221.083201 26.0
222.10543 68.0
223.109549 36.0
223.121249 46.0
225.077527 30.0
227.082214 40.0
233.092738 31.0
234.064417 33.0
235.114685 72.0
235.170275 41.0
235.242395 82.0
237.056383 24.0
237.181593 39.0
239.089361 30.0
239.162081 33.0
240.07648 31.0
241.082349 59.0
242.985867 43.0
245.229634 97.0
247.169452 27.0
248.99013 44.0
249.17721 34.0
250.969558 37.0
253.047196 168.0
253.251385 75.0
254.872164 89.0
255.138093 437.0
257.096221 52.0
259.162749 92.0
259.210049 60.0
261.131457 114.0
262.099566 28.0
263.223624 69.0
265.021043 24.0
265.214072 38.0
267.00066 173.0
269.085648 101.0
271.096446 31.0
273.153634 45.0
277.216249 127.0
279.072207 46.0
281.050965 58.0
281.244785 176.0
283.043273 46.0
285.03768 22.0
287.200098 143.0
291.061234 220.0
292.237323 57.0
293.169171 26.0
295.200579 15.0
297.201827 22.0
299.014995 24.0
299.160685 146.0
300.061074 31.0
301.178693 34.0
302.223431 27.0
305.211068 195.0
307.136016 94.0
309.149724 1091.0
311.223542 64.0
319.255513 138.0
319.266013 88.0
320.222432 59.0
323.003459 52.0
325.022476 55.0
327.155864 23.0
327.161204 52.0
337.069093 51.0
337.214813 153.0
339.039551 108.0
353.177625 43.0
354.183544 48.0
355.185313 3116.0

