>compound 
>formula C26H28O14
>parentmass 587.1371265764201
>ionization [M + Na]+
>instrumentation Unknown (LCMS)
>source file:/Users/fanzhoukong/Documents/GitHub/Libgen/data/EAD_PFP/0_unknown_/spectrum.ms
>quality UNKNOWN

>ms2peaks
51.022036 245.0
52.029697 72.0
53.037938 78.0
55.05435 170.0
56.051001 24.0
59.974394 6.0
60.985345 42.0
62.014006 54.0
63.024057 215.0
64.019517 20.0
65.038588 920.0
66.043409 72.0
67.05273 192.0
68.047881 35.0
68.995012 241.0
74.016716 35.0
75.017947 33.0
76.028478 38.0
77.039749 648.0
78.04298 117.0
79.051841 343.0
80.050511 79.0
81.067812 51.0
83.057384 13.0
85.006936 23.0
88.020988 24.0
89.035799 32.0
89.038569 199.0
90.04155 40.0
91.057631 1229.0
92.058732 145.0
92.994443 21.0
93.060583 48.0
94.038394 12.0
94.066894 51.0
95.080534 38.0
95.950815 25.0
97.948407 20.0
99.020708 14.0
99.992049 37.0
101.02325 17.0
102.045901 59.0
103.054791 100.0
104.045672 39.0
105.044303 78.0
105.069403 110.0
106.064854 80.0
106.075944 27.0
107.089315 21.0
108.082046 29.0
109.080377 34.0
111.002018 32.0
113.00084 38.0
114.026811 26.0
114.040411 22.0
115.055322 397.0
116.056783 54.0
117.060464 85.0
118.063144 38.0
119.065825 50.0
120.080266 25.0
123.091779 17.0
124.05443 12.0
126.044881 39.0
126.901992 14.0
127.033352 13.0
127.052122 79.0
128.063363 383.0
129.065274 58.0
130.064375 89.0
130.989956 48.0
131.061726 28.0
131.077406 28.0
132.077497 31.0
133.074617 18.0
134.097038 23.0
135.117669 13.0
139.056293 47.0
140.049214 22.0
141.066614 76.0
142.066675 55.0
142.080685 36.0
143.088996 16.0
144.073867 36.0
145.083308 27.0
145.963709 23.0
147.9648 29.0
148.114971 28.0
150.045472 38.0
151.046713 49.0
151.053923 38.0
152.053704 19.0
152.060944 142.0
153.068885 71.0
154.070406 40.0
155.071537 66.0
156.073477 24.0
157.084768 29.0
158.096869 35.0
159.07639 30.0
159.09986 38.0
161.081802 21.0
161.104172 13.0
162.998443 35.0
163.052223 25.0
164.054474 18.0
165.068615 157.0
166.059376 19.0
167.061937 16.0
167.072067 102.0
168.063718 37.0
169.062119 21.0
169.083789 33.0
170.07755 21.0
170.098 24.0
171.0896 12.0
173.091792 17.0
175.148384 22.0
176.059705 40.0
177.058066 16.0
177.102396 14.0
178.076277 27.0
178.961067 13.0
179.077737 28.0
180.072798 19.0
180.083328 27.0
181.071939 32.0
181.085109 37.0
182.09367 15.0
183.081151 13.0
184.040762 34.0
185.041493 16.0
185.092133 21.0
186.122454 18.0
188.066715 19.0
189.070246 32.0
190.079157 27.0
190.997318 40.0
191.074488 15.0
192.069729 21.0
192.980419 80.0
193.98605 17.0
194.960081 19.0
195.090051 22.0
197.055723 15.0
198.122904 11.0
200.059436 18.0
201.069416 26.0
202.072207 23.0
203.077468 21.0
204.079649 29.0
205.08289 12.0
205.15586 21.0
207.034722 48.0
208.036723 26.0
209.011373 15.0
209.106283 14.0
210.988885 14.0
212.995727 12.0
214.142448 18.0
215.068079 16.0
221.118044 11.0
227.082129 12.0
239.066609 15.0
240.06885 19.0
241.048851 27.0
242.049142 32.0
242.061342 46.0
242.981273 16.0
243.205783 12.0
248.988578 19.0
251.0068 39.0
255.067703 7.0
257.083665 28.0
265.008352 39.0
265.019522 31.0
266.994324 13.0
268.994105 24.0
269.011775 16.0
270.050746 61.0
271.067507 155.0
281.052716 58.0
282.055397 18.0
283.045058 29.0
291.091475 7.0
292.034895 47.0
293.046896 123.0
299.072752 14.0
301.068383 12.0
317.082007 737.0
335.036553 13.0
371.165214 18.0
407.067465 7.0
407.073395 39.0
419.090886 23.0
425.078351 16.0
437.080311 43.0
455.088207 39.0
461.175152 6.0
463.131574 119.0
467.107687 10.0
483.070161 13.0
483.093841 54.0
497.098923 13.0
497.105483 23.0
509.117944 42.0
546.038656 6.0
552.133211 6.0
555.113494 29.0
567.133714 6.0
569.134746 11.0
585.13281 21.0
586.102411 35.0
586.130861 430.0
587.132142 3043.0
587.148742 3840.0

