>compound 
>formula C20H24O11
>parentmass 458.1656825887901
>ionization [M + H3N + H]+
>instrumentation Unknown (LCMS)
>source file:/Users/fanzhoukong/Documents/GitHub/Libgen/data/EAD_PFP/0_unknown_/spectrum.ms
>quality UNKNOWN

>ms2peaks
126.048896 92.0
127.053945 124.0
128.061864 641.0
129.071552 454.0
130.067301 68.0
130.079601 67.0
131.04896 184.0
131.08149 128.0
132.055709 56.0
133.027858 74.0
133.041428 93.0
133.066278 126.0
134.039877 55.0
135.043226 227.0
137.023264 102.0
138.034213 30.0
139.046591 208.0
141.069629 359.0
142.077868 100.0
143.080327 71.0
144.051026 49.0
145.045075 116.0
147.048163 55.0
159.047409 49.0
160.050918 30.0
161.061317 98.0
162.032496 37.0
163.040365 282.0
164.047604 61.0
165.017663 58.0
165.054163 278.0
165.069263 329.0
166.076422 73.0
167.036001 75.0
167.062591 41.0
167.07904 135.0
168.065649 70.0
169.083158 164.0
170.075637 31.0
171.051806 163.0
171.078716 115.0
172.070605 45.0
173.058914 588.0
174.047463 129.0
174.068153 153.0
175.054392 391.0
175.076422 273.0
176.060331 143.0
177.056099 698.0
178.062518 113.0
179.039037 147.0
179.079667 148.0
180.090516 158.0
181.068605 139.0
182.089004 60.0
183.043333 70.0
184.042692 51.0
184.075932 63.0
185.059451 515.0
185.076771 184.0
187.054428 417.0
188.051217 35.0
189.058736 352.0
189.080306 111.0
190.078405 202.0
191.004694 57.0
191.033124 154.0
191.060214 280.0
192.045893 72.0
192.081183 55.0
193.028662 197.0
194.071251 33.0
195.02909 602.0
196.035909 49.0
196.092149 41.0
197.054967 33.0
197.094837 72.0
198.050446 53.0
198.079396 43.0
199.041515 54.0
199.078845 101.0
200.046174 47.0
200.084974 43.0
201.056123 459.0
202.067222 122.0
203.071081 555.0
204.05926 50.0
205.052619 719.0
206.058248 66.0
206.093387 45.0
207.026856 294.0
208.110785 46.0
209.010544 61.0
209.041704 73.0
211.056352 75.0
211.094792 67.0
212.085131 48.0
213.05778 140.0
213.08638 190.0
213.10496 108.0
214.084239 92.0
215.049988 91.0
215.068658 161.0
217.052885 219.0
217.068765 126.0
218.058554 63.0
219.059283 186.0
219.066533 384.0
221.041421 180.0
221.050141 140.0
221.090931 30.0
223.058799 144.0
223.112929 92.0
224.081198 41.0
225.064777 61.0
225.105927 36.0
226.062305 73.0
227.104844 86.0
229.044372 65.0
229.054742 206.0
230.062541 101.0
231.0651 302.0
233.045368 295.0
234.052907 38.0
235.023566 53.0
237.049353 58.0
238.047352 48.0
239.103501 75.0
241.060039 60.0
241.122409 134.0
243.053567 88.0
243.088697 127.0
243.100917 128.0
245.043035 122.0
245.092114 71.0
246.050023 47.0
247.057562 681.0
248.070231 234.0
249.07259 175.0
251.053898 427.0
253.066436 35.0
253.103836 40.0
255.052584 44.0
255.076043 67.0
257.051201 179.0
257.093621 82.0
258.05108 34.0
259.070249 70.0
259.133299 228.0
261.041767 164.0
261.075007 199.0
263.071615 75.0
265.048722 110.0
265.075852 355.0
267.06044 51.0
267.09886 56.0
269.060498 71.0
269.124768 83.0
271.095406 35.0
271.140576 36.0
273.113714 126.0
275.058261 424.0
276.06812 67.0
277.076569 107.0
279.046607 249.0
281.063045 225.0
282.054234 69.0
283.063663 54.0
285.11105 104.0
286.115989 56.0
287.127678 395.0
289.108056 67.0
291.078574 50.0
291.116994 39.0
293.060782 192.0
293.075882 1057.0
294.07457 77.0
295.098529 84.0
297.058907 78.0
297.102797 81.0
298.088026 38.0
299.078285 49.0
301.109633 83.0
303.117101 203.0
304.134469 85.0
305.136418 180.0
306.150297 85.0
307.047396 489.0
309.086604 58.0
311.082482 388.0
313.109039 135.0
315.126517 78.0
317.103385 30.0
319.082903 47.0
319.117913 101.0
320.049582 35.0
321.073871 280.0
321.094931 624.0
321.119521 252.0
321.130051 579.0
323.060469 41.0
323.081588 126.0
324.056047 104.0
325.060256 2639.0
331.12159 686.0
332.127719 57.0
333.137177 135.0
335.045895 48.0
337.057223 37.0
339.072751 403.0
339.116021 88.0
341.094269 51.0
341.105129 51.0
343.118186 56.0
344.126025 39.0
348.128281 135.0
349.1288 1173.0
350.136249 57.0
352.047077 160.0
353.053205 2239.0
357.96638 68.0
359.116429 561.0
361.137177 81.0
365.111482 36.0
365.122712 113.0
366.130461 401.0
367.07016 83.0
367.10583 439.0
367.14526 383.0
368.135129 143.0
369.092468 30.0
370.052907 125.0
377.117269 86.0
377.130569 1089.0
379.109757 67.0
385.07651 618.0
387.105318 148.0
394.13144 214.0
395.135619 1966.0
400.089374 52.0
404.112409 77.0
405.119338 828.0
413.140239 41.0
422.120849 167.0
423.133848 636.0
439.66901 153.0
440.133369 550.0
441.151248 16585.0
456.619461 32.0
457.155511 325.0
458.17403 5743.0

