>compound 
>formula C17H18O6
>parentmass 319.11761929756005
>ionization [M + H]+
>instrumentation Unknown (LCMS)
>source file:/Users/fanzhoukong/Documents/GitHub/Libgen/data/EAD_PFP/0_unknown_/spectrum.ms
>quality UNKNOWN

>ms2peaks
113.039659 45.0
115.0535 859.0
115.05666 1311.0
116.062341 78.0
117.069231 242.0
118.043212 75.0
121.027063 111.0
126.031976 43.0
127.052407 106.0
128.064768 114.0
129.036618 110.0
130.041199 127.0
131.048539 243.0
142.038926 45.0
143.048266 65.0
144.055317 104.0
145.064738 928.0
146.037388 120.0
147.084589 50.0
149.13397 45.0
150.04936 56.0
151.054221 138.0
152.061212 798.0
153.067942 205.0
154.068253 102.0
155.054743 251.0
155.081583 122.0
156.077424 45.0
157.031035 167.0
157.042085 155.0
157.069095 50.0
158.036805 4919.0
159.047016 5065.0
160.046816 53.0
160.055496 69.0
161.037327 62.0
161.069647 76.0
162.972458 67.0
163.048758 60.0
164.066039 82.0
165.070149 828.0
166.07479 90.0
168.061471 225.0
169.033122 1409.0
170.029292 137.0
171.045033 1662.0
172.054813 229.0
173.044384 658.0
173.061124 696.0
174.031614 727.0
175.077375 37.0
176.061256 71.0
177.068786 71.0
178.079177 207.0
179.084557 233.0
180.065178 78.0
181.065629 207.0
182.048989 62.0
183.04034 124.0
183.0589 127.0
184.04368 67.0
184.05298 79.0
185.020451 74.0
185.032441 100.0
185.057751 328.0
185.794101 46.0
186.039892 5169.0
186.041212 8313.0
187.039342 4089.0
188.046843 227.0
189.053013 50.0
191.082884 63.0
192.064545 46.0
192.980706 30.0
193.066446 30.0
193.096376 36.0
194.068186 42.0
195.080737 1339.0
196.052037 53.0
196.089067 114.0
197.058758 295.0
198.037709 649.0
199.037059 402.0
200.04585 166.0
200.37991 38.0
201.06414 9524.0
202.026511 2990.0
203.044241 86.0
205.063523 80.0
206.100113 43.0
207.030764 56.0
207.080104 100.0
208.056764 163.0
209.059795 93.0
211.036116 290.0
211.048916 291.0
211.077396 136.0
212.054867 159.0
212.081967 186.0
213.057477 2234.0
214.029478 899.0
215.036749 5775.0
216.042059 195.0
217.05114 3413.0
221.064432 52.0
222.070563 81.0
223.077523 912.0
224.057444 62.0
224.083844 128.0
225.057134 937.0
226.025185 469.0
227.073546 173.0
227.095686 200.0
228.050346 146.0
228.300426 165.0
228.307826 122.0
228.789147 29.0
229.057427 16050.0
230.193037 74.0
231.024628 32.0
231.596738 108.0
236.047131 78.0
237.085261 63.0
239.035063 425.0
240.058493 211.0
241.056734 999.0
242.060094 182.0
243.067055 345.0
245.039706 41.0
250.062779 48.0
251.0676 230.0
252.08224 67.0
253.052151 1600.0
255.086752 388.0
255.094572 405.0
257.079233 217.0
258.031934 113.0
259.052654 151.0
262.314036 89.0
265.088368 217.0
267.063399 60.0
268.07134 530.0
271.101641 181.0
272.257742 100.0
273.115103 44.0
283.101348 1679.0
292.110474 360.0
301.111119 194.0
319.154499 69.0
319.18251 51.0

