>compound 
>formula C26H34O12
>parentmass 556.23884753066
>ionization [M + H3N + H]+
>instrumentation Unknown (LCMS)
>source file:/Users/fanzhoukong/Documents/GitHub/Libgen/data/EAD_PFP/0_unknown_/spectrum.ms
>quality UNKNOWN

>ms2peaks
50.014592 157.0
51.02419 677.0
52.030438 152.0
53.041527 221.0
55.018753 605.0
55.055813 49.0
57.028459 30.0
59.050126 20.0
60.991422 23.0
62.007011 83.0
63.023219 256.0
64.030427 64.0
65.039305 1943.0
66.047304 775.0
67.055042 408.0
68.03242 31.0
68.997348 91.0
69.016878 81.0
71.047455 24.0
74.016559 45.0
75.024578 49.0
77.036994 249.0
77.041284 1545.0
78.046262 369.0
79.056871 665.0
80.041549 76.0
81.035857 244.0
82.037185 16.0
83.050914 142.0
85.02838 141.0
87.021797 35.0
88.030835 27.0
89.039233 470.0
90.048721 87.0
91.057349 1930.0
92.049048 63.0
93.032886 1144.0
94.042844 1382.0
95.050622 172.0
95.953381 15.0
97.030169 102.0
99.036945 40.0
99.995624 18.0
101.038662 60.0
102.04752 251.0
103.055428 2193.0
104.057296 74.0
105.064005 157.0
105.071035 585.0
106.070523 54.0
107.050411 622.0
108.022589 236.0
109.030868 267.0
109.040068 141.0
110.029446 128.0
110.039716 140.0
111.043924 92.0
113.028531 40.0
114.046249 26.0
115.048577 29.0
115.056977 3088.0
116.063725 1118.0
117.070603 934.0
118.043522 219.0
119.05146 283.0
120.078718 48.0
121.052166 50.0
121.069416 49.0
122.036045 1439.0
123.048903 338.0
124.051751 275.0
125.053199 147.0
125.059769 340.0
126.035578 60.0
126.047678 101.0
127.054916 1065.0
128.066174 3143.0
129.071422 2888.0
130.041501 40.0
130.06831 92.0
130.07501 69.0
131.051079 2809.0
132.058947 426.0
133.067275 939.0
134.035223 46.0
134.066973 30.0
135.046512 641.0
136.01817 26.0
136.05244 69.0
137.065568 10269.0
138.047906 68.0
138.075536 82.0
138.607855 23.0
139.037225 45.0
139.056865 185.0
140.053263 61.0
141.061361 55.0
141.070671 202.0
142.069569 56.0
143.050908 522.0
144.057956 907.0
145.068544 900.0
146.034112 45.0
146.051872 315.0
147.04922 270.0
148.048779 17.0
149.066057 113.0
150.070025 974.0
151.042433 1178.0
152.060292 337.0
153.0573 3604.0
154.064858 72.0
155.047676 74.0
155.061106 184.0
156.059325 52.0
157.068123 1076.0
158.077701 136.0
159.047279 277.0
159.079399 95.0
160.056998 1749.0
161.061186 1300.0
161.536455 32.0
162.047334 48.0
162.072284 699.0
163.077772 2681.0
164.05625 68.0
164.0801 65.0
165.055289 85.0
165.061589 409.0
165.070399 550.0
166.068717 108.0
167.071325 223.0
167.081455 162.0
168.062973 130.0
169.063922 148.0
170.08189 34.0
171.045268 56.0
171.070908 99.0
171.081148 162.0
172.055046 1737.0
173.060065 594.0
174.070613 1851.0
174.507732 62.0
175.078891 5150.0
175.086671 5935.0
175.75617 27.0
176.079699 2080.0
177.061187 111.0
177.067707 313.0
177.084647 410.0
178.065016 1208.0
179.057264 30.0
179.071684 496.0
180.086442 472.0
181.05134 33.0
181.0698 145.0
182.071699 58.0
183.044537 46.0
183.064417 46.0
184.051865 150.0
185.059303 569.0
186.062812 32.0
187.08109 5381.0
188.083328 291.0
189.089596 2045.0
189.096326 8259.0
190.063445 196.0
190.076925 427.0
191.080393 871.0
192.064761 72.0
192.074271 35.0
192.082401 111.0
193.087059 1254.0
194.065657 78.0
194.073857 165.0
195.056326 52.0
195.079576 62.0
196.076934 954.0
197.063082 111.0
198.0641 27.0
199.077339 441.0
200.066827 53.0
200.080677 30.0
201.064335 37.0
201.072665 152.0
201.092105 97.0
202.079643 339.0
203.076552 127.0
203.082122 775.0
204.06053 41.0
204.08852 70.0
204.404919 48.0
205.084758 5547.0
206.079206 99.0
206.098886 280.0
206.443596 29.0
207.102834 3934.0
208.078153 60.0
208.083813 70.0
208.099343 64.0
209.061411 23.0
209.067071 124.0
209.089741 60.0
210.071129 39.0
210.095269 49.0
211.074727 270.0
212.049336 101.0
213.066234 32.0
213.094834 41.0
215.07714 78.0
215.08577 98.0
216.071029 28.0
217.088847 6151.0
218.074335 191.0
219.093953 1427.0
220.089781 112.0
221.08206 660.0
222.069278 25.0
222.092638 53.0
223.076226 73.0
224.103064 849.0
225.055823 35.0
225.079353 89.0
226.060711 23.0
226.081321 32.0
227.073709 183.0
228.091937 45.0
229.062026 29.0
229.085756 32.0
230.062404 36.0
230.074314 33.0
231.084352 605.0
232.08316 44.0
233.052719 52.0
233.064689 43.0
233.078149 121.0
233.099089 104.0
234.070767 81.0
234.075267 99.0
235.091025 236.0
235.103045 1810.0
236.078893 114.0
237.091451 250.0
238.06687 26.0
239.077618 317.0
240.058636 18.0
240.078386 93.0
241.056884 21.0
241.088814 131.0
242.081573 31.0
243.082471 39.0
243.102321 46.0
245.064377 30.0
245.079717 60.0
247.075914 733.0
248.087062 406.0
249.09257 249.0
250.067559 89.0
250.103208 53.0
251.106557 361.0
252.093255 97.0
252.104145 189.0
253.088123 131.0
254.099021 37.0
255.07123 282.0
255.08061 93.0
256.082928 91.0
258.069834 44.0
258.095014 39.0
259.082713 312.0
259.087473 683.0
260.081791 110.0
261.095469 390.0
262.074617 47.0
262.103157 55.0
263.100106 129.0
263.109626 1132.0
264.079834 237.0
265.088472 289.0
266.07028 22.0
266.09585 35.0
267.105158 133.0
268.065027 34.0
268.095517 40.0
269.092495 133.0
269.113395 37.0
270.091363 1583.0
271.100121 2864.0
272.10433 59.0
273.092548 70.0
273.105518 45.0
273.113598 73.0
273.128158 68.0
275.061384 24.0
275.080884 64.0
275.115004 25.0
276.085913 218.0
277.087871 160.0
278.093269 66.0
278.134099 28.0
279.105387 2833.0
280.086586 40.0
280.109535 89.0
281.094114 83.0
281.110534 102.0
281.123694 135.0
282.082092 53.0
283.09979 682.0
284.106138 50.0
285.112607 97.0
287.094353 25.0
289.08797 40.0
290.094868 34.0
290.119888 28.0
291.088486 69.0
291.106856 3838.0
292.117264 156.0
293.090863 94.0
293.116013 151.0
294.082861 30.0
295.093359 60.0
295.101779 101.0
295.113559 140.0
295.133739 133.0
296.107277 747.0
297.112825 329.0
298.118354 50.0
298.153904 49.0
299.137482 104.0
304.115563 24.0
305.119191 139.0
307.103928 79.0
307.114248 61.0
308.105606 293.0
309.108904 296.0
309.117504 744.0
310.087963 31.0
310.112102 45.0
311.134191 9480.0
312.128579 81.0
312.144139 78.0
312.170109 56.0
313.117587 65.0
313.138407 337.0
315.103794 20.0
321.105373 21.0
321.121173 52.0
322.103201 37.0
322.120811 15.0
323.136069 7697.0
325.139636 157.0
325.146686 140.0
326.118944 29.0
327.128092 345.0
328.112191 25.0
328.128181 38.0
329.145759 4115.0
335.124718 25.0
339.097891 23.0
339.121331 33.0
339.98238 27.0
340.09438 35.0
341.128528 415.0
341.146628 15035.0
343.121714 50.0
343.147104 42.0
344.140452 43.0
345.149791 22.0
346.125959 37.0
349.132354 51.0
353.141447 34.0
357.129019 46.0
357.138269 39.0
358.121968 71.0
358.142388 99.0
358.159048 33.0
359.155316 3352.0
361.137102 40.0
362.143081 25.0
369.133758 21.0
375.145098 95.0
376.149496 265.0
377.147594 26.0
383.158363 19.0
387.157256 22.0
389.135493 27.0
401.155922 42.0
437.170598 19.0
473.182734 36.0
485.199893 22.0
491.195493 37.0
503.198281 408.0
521.20008 27.0
556.238168 147.0

