>compound 
>formula C15H22O3
>parentmass 273.14611556777004
>ionization [M + Na]+
>instrumentation Unknown (LCMS)
>source file:/Users/fanzhoukong/Documents/GitHub/Libgen/data/EAD_PFP/0_unknown_/spectrum.ms
>quality UNKNOWN

>ms2peaks
50.012816 182.0
51.02172 580.0
52.027974 67.0
53.036928 120.0
54.033243 22.0
55.017027 8.0
55.052637 240.0
55.93199 10.0
56.048541 48.0
57.031185 18.0
57.069665 32.0
57.931369 7.0
58.063419 35.0
59.071013 51.0
60.982861 25.0
62.012295 47.0
63.021559 290.0
64.026424 22.0
65.036868 1031.0
66.043282 94.0
67.053416 347.0
68.02273 8.0
68.04293 6.0
68.993294 73.0
69.067364 30.0
70.065008 34.0
71.049992 28.0
74.013315 26.0
75.011999 18.0
75.021329 35.0
76.027623 82.0
77.038897 990.0
78.042141 184.0
79.052745 556.0
80.048809 82.0
81.068754 282.0
82.064978 97.0
83.050322 35.0
83.069072 20.0
83.076212 36.0
84.077476 36.0
86.012564 12.0
87.043198 8.0
88.029402 8.0
89.035956 220.0
90.044511 74.0
91.054075 1087.0
92.055159 140.0
93.065503 174.0
94.062357 92.0
95.047331 11.0
95.083631 124.0
96.078725 57.0
97.065479 68.0
98.063104 10.0
98.974197 8.0
99.041448 13.0
99.078508 10.0
100.109912 10.0
101.032406 16.0
101.039306 9.0
102.04422 79.0
103.054114 208.0
104.056988 70.0
105.068732 391.0
106.064186 75.0
107.05015 51.0
107.0613 68.0
107.069411 11.0
108.067145 84.0
108.079365 54.0
109.092009 42.0
110.068273 20.0
111.042687 93.0
111.078817 11.0
112.006871 8.0
113.000225 38.0
113.056465 9.0
114.042939 23.0
115.055773 677.0
116.055127 76.0
117.066232 235.0
118.042336 7.0
118.051916 28.0
118.061496 62.0
119.06311 43.0
119.08342 93.0
120.060374 14.0
120.072184 29.0
120.077544 69.0
121.062868 32.0
121.094128 67.0
122.093342 13.0
123.041236 17.0
123.073836 14.0
123.086876 19.0
124.05062 37.0
124.0779 11.0
124.110641 24.0
125.058644 50.0
126.046559 39.0
126.901472 6.0
127.054913 174.0
128.059537 488.0
129.068101 164.0
130.064985 239.0
131.047769 27.0
131.055619 24.0
131.067949 78.0
131.079169 131.0
132.057883 10.0
132.065763 92.0
132.079283 201.0
133.065087 102.0
134.092012 20.0
135.040895 17.0
135.061396 23.0
135.083026 28.0
135.113776 14.0
136.11198 112.0
137.059954 30.0
137.111554 14.0
138.066458 44.0
139.050072 21.0
139.065082 44.0
140.049936 8.0
141.06851 118.0
141.927324 19.0
142.072084 55.0
143.074529 76.0
144.079333 104.0
145.066397 43.0
145.075837 75.0
145.085287 57.0
145.099447 54.0
146.068681 24.0
146.084071 109.0
146.092371 69.0
147.069655 10.0
147.086285 29.0
147.113615 12.0
147.574997 17.0
148.051409 92.0
149.061523 6.0
149.098623 13.0
149.130903 22.0
150.064287 202.0
151.075241 697.0
152.061795 217.0
153.06852 148.0
154.066414 119.0
154.584846 16.0
155.063888 18.0
155.073638 45.0
155.083398 57.0
156.081712 112.0
156.581454 6.0
157.089356 96.0
158.09039 155.0
159.067424 37.0
159.081004 56.0
159.088434 69.0
159.114374 67.0
160.074738 271.0
160.094558 38.0
160.5833 8.0
161.081493 330.0
161.595395 90.0
162.092667 208.0
162.600679 38.0
163.076951 301.0
163.109481 54.0
163.591523 49.0
164.064225 24.0
164.078035 80.0
165.074619 201.0
166.074243 61.0
166.584665 21.0
167.080677 88.0
167.098407 25.0
167.116117 34.0
167.143987 30.0
168.058381 13.0
168.079971 47.0
169.063145 22.0
169.074605 40.0
169.089895 44.0
169.098825 22.0
170.059419 19.0
170.068359 14.0
170.07986 52.0
170.09263 83.0
171.067584 11.0
171.085524 26.0
171.095784 35.0
172.069728 14.0
172.082568 61.0
172.089008 53.0
172.099298 67.0
172.106998 88.0
173.096702 69.0
173.130232 12.0
174.090556 733.0
175.09891 536.0
176.104984 516.0
177.090468 11.0
177.116538 644.0
177.61754 210.0
178.068232 11.0
178.078702 131.0
179.084107 67.0
180.085761 65.0
181.062525 11.0
181.080995 47.0
181.109995 16.0
182.073669 27.0
182.093489 29.0
183.078343 46.0
183.107503 18.0
184.077817 33.0
184.089757 59.0
184.116357 16.0
185.087981 77.0
185.111981 13.0
186.071525 17.0
186.094245 68.0
187.101909 58.0
187.14344 8.0
188.070623 50.0
188.082714 50.0
188.105554 51.0
188.601656 21.0
189.087628 182.0
190.088492 147.0
191.073026 1839.0
192.0764 104.0
192.980314 43.0
193.086484 12.0
193.098744 17.0
194.067828 9.0
194.091028 26.0
195.096792 44.0
195.117332 32.0
195.137853 42.0
196.076386 26.0
196.088726 17.0
196.106546 24.0
196.140857 21.0
197.05979 11.0
197.092791 32.0
197.112051 21.0
197.596473 9.0
198.081485 20.0
198.092525 55.0
199.098919 46.0
199.140389 9.0
200.069073 27.0
200.080173 15.0
200.100953 21.0
201.095767 48.0
202.083301 163.0
203.092795 148.0
204.103419 2486.0
205.108123 870.0
206.094198 33.0
206.118108 26.0
207.031901 42.0
207.062912 32.0
208.103116 17.0
208.115846 13.0
209.08079 17.0
209.0992 39.0
209.1077 49.0
210.089134 38.0
210.106184 22.0
211.071458 11.0
211.098498 23.0
211.108438 32.0
212.083152 10.0
212.103122 13.0
213.072956 12.0
213.091556 9.0
213.141606 12.0
214.07942 14.0
214.09231 20.0
214.11238 13.0
215.101165 57.0
216.103749 110.0
217.084133 26.0
217.111553 47.0
218.113017 67.0
219.128391 1333.0
220.131585 327.0
221.096279 17.0
221.110829 13.0
221.604931 11.0
222.095193 35.0
223.096377 31.0
223.111007 21.0
223.125648 30.0
223.130018 40.0
224.077791 9.0
224.089531 14.0
224.102732 34.0
225.043755 11.0
225.090766 97.0
225.105476 20.0
226.0972 152.0
227.097014 70.0
227.111774 57.0
228.091618 12.0
228.61421 10.0
229.109192 18.0
229.121042 48.0
229.193702 11.0
230.114136 48.0
230.622648 15.0
231.10491 36.0
231.11831 28.0
231.13469 9.0
232.123175 40.0
232.132135 67.0
233.112269 28.0
233.139199 15.0
234.092993 27.0
234.104983 16.0
234.146963 9.0
235.096797 29.0
235.105807 16.0
236.108761 48.0
237.127425 39.0
237.147035 10.0
238.092349 22.0
238.118049 18.0
239.092553 15.0
239.104663 39.0
240.100937 42.0
240.110037 29.0
241.093181 24.0
241.111431 10.0
241.123592 29.0
242.119476 136.0
243.10366 19.0
243.12046 22.0
243.13116 22.0
244.132684 32.0
245.094898 11.0
245.113278 18.0
245.134768 18.0
246.111222 13.0
246.149652 18.0
247.100396 10.0
247.112706 23.0
248.10544 31.0
248.988844 13.0
249.114074 23.0
250.084468 36.0
250.115458 17.0
251.095562 15.0
252.107127 34.0
252.128917 34.0
252.147587 15.0
253.116081 34.0
254.116085 47.0
255.138419 38.0
255.157189 15.0
255.171279 27.0
255.207269 22.0
256.133013 66.0
256.147113 39.0
257.126397 39.0
257.137377 29.0
258.124841 21.0
258.137441 27.0
258.148461 37.0
259.107905 9.0
259.142576 14.0
260.10861 14.0
261.128664 12.0
262.107888 11.0
263.127092 12.0
264.103686 39.0
264.130756 27.0
265.01989 17.0
265.10921 10.0
266.126214 64.0
266.139004 11.0
267.137178 42.0
268.121162 27.0
268.132393 102.0
269.143957 25.0
270.149361 68.0
271.148545 31.0
272.128589 8.0
272.160909 17.0
272.649191 7.0
273.167073 1614.0

