>compound 
>formula C10H14N2
>parentmass 163.21
>ionization [M + H]+
>instrumentation Unknown (LCMS)
>source file:/Users/fanzhoukong/Documents/GitHub/Libgen/data/NIST_MONA/0_unknown_/spectrum.ms
>quality UNKNOWN

>ms2peaks
42.0 3.73979
43.0 5.149148
44.0 14.586293
77.0 5.419922
78.0 4.074929
79.0 3.717596
80.0 11.980646
83.0 6.622869
84.0 17.966531
90.0 4.141513
92.0 9.343928
93.0 4.376776
103.0 6.099077
105.0 11.410245
106.0 19.173917
114.0 3.065075
115.0 5.788352
116.0 23.85032
117.0 100.0
118.0 4.48331
120.0 8.706942
128.0 4.636452
129.0 20.321378
130.0 84.403853
131.0 13.083718
132.0 25.375089

