>compound 
>formula C17H16O6
>parentmass 317.1019692331
>ionization [M + H]+
>instrumentation Unknown (LCMS)
>source file:/Users/fanzhoukong/Documents/GitHub/Libgen/data/EAD_PFP/0_unknown_/spectrum.ms
>quality UNKNOWN

>ms2peaks
115.054837 1680.0
116.062625 78.0
117.070563 146.0
119.04607 172.0
119.05035 507.0
121.030567 614.0
125.042201 52.0
126.046529 241.0
127.059287 210.0
128.060586 338.0
129.079164 94.0
131.049911 77.0
139.049878 917.0
140.063627 464.0
141.069445 1953.0
142.062514 72.0
143.060222 203.0
144.05908 857.0
145.057869 814.0
145.069669 1811.0
146.070757 63.0
147.038476 111.0
147.110955 175.0
147.115695 361.0
149.024142 2446.0
150.045971 2141.0
151.058039 6094.0
152.063858 15063.0
153.072996 8046.0
154.075754 892.0
155.087883 8112.0
156.061731 207.0
157.07052 868.0
158.076408 483.0
159.080586 1512.0
160.056925 383.0
161.087243 189.0
161.132003 211.0
162.036052 91.0
162.046032 153.0
163.0552 2022.0
164.063728 2545.0
164.548428 107.0
165.071597 22623.0
166.081285 1738.0
167.086464 2819.0
168.060362 9390.0
169.06895 12622.0
170.080569 370.0
171.058027 2253.0
171.081077 1292.0
172.044716 82.0
172.051146 164.0
173.062604 9524.0
174.108042 89.0
175.043841 285.0
176.054939 613.0
177.072868 977.0
178.076726 232.0
179.053265 1201.0
180.061403 1220.0
181.071061 5300.0
182.07427 1126.0
183.085568 9386.0
184.053137 348.0
185.061905 870.0
186.066763 351.0
187.081022 5611.0
188.07385 80.0
189.070659 132.0
189.102999 252.0
189.131288 137.0
191.074905 85.0
191.146675 80.0
192.059274 294.0
193.069302 9901.0
194.072421 1520.0
195.084999 3417.0
196.059037 2143.0
197.067136 23483.0
198.070924 1004.0
198.585513 53.0
199.066203 2187.0
199.075883 7694.0
199.834041 67.0
200.050141 1572.0
201.057319 5722.0
201.776098 84.0
202.053108 84.0
202.072598 133.0
203.034616 159.0
203.143496 67.0
205.053823 832.0
207.04498 966.0
208.052638 1009.0
209.062757 1502.0
210.069625 2258.0
211.077514 17811.0
212.070652 160.0
213.06045 2204.0
214.069719 4527.0
215.072777 10726.0
216.066636 114.0
216.079596 708.0
217.055574 570.0
218.054012 297.0
219.119981 109.0
220.051939 171.0
221.067418 16684.0
222.070656 1233.0
223.077614 3952.0
224.051673 1087.0
224.336212 77.0
225.063101 24342.0
226.06799 10713.0
227.041148 235.0
227.924707 103.0
228.072626 309.0
229.079735 896.0
229.091605 3199.0
230.044503 77.0
230.063823 188.0
230.072753 183.0
231.192981 55.0
233.793487 54.0
237.049132 158.0
237.056682 1258.0
238.06376 1771.0
238.28904 187.0
238.48414 122.0
239.072989 35615.0
240.081327 1921.0
240.418417 64.0
241.055276 647.0
241.073526 1279.0
242.063194 3779.0
243.068643 19295.0
249.055383 357.0
253.088027 730.0
256.068722 174.0
257.08712 5717.0
267.074654 2966.0
270.04942 52.0
271.156498 324.0
271.203278 556.0
275.092161 459.0
281.079242 2838.0
281.092392 2288.0
282.0902 62.0
284.049907 128.0
284.073017 240.0
285.086046 2088.0
286.785593 23.0
298.082755 179.0
299.095023 7191.0
301.06691 96.0
309.296547 23.0
316.125266 109.0
317.108394 7263.0

