>compound 
>formula C16H14O7
>parentmass 341.06317378821007
>ionization [M + Na]+
>instrumentation Unknown (LCMS)
>source file:/Users/fanzhoukong/Documents/GitHub/Libgen/data/EAD_PFP/0_unknown_/spectrum.ms
>quality UNKNOWN

>ms2peaks
126.047759 38.0
127.052799 194.0
128.060729 448.0
129.070419 133.0
130.068418 124.0
131.064648 122.0
133.100188 113.0
135.048918 60.0
135.114938 29.0
136.114278 34.0
137.056527 126.0
139.056997 91.0
140.049917 77.0
141.069647 295.0
142.075557 144.0
143.083866 152.0
144.059306 31.0
145.098216 81.0
147.115926 35.0
149.132026 43.0
164.061513 50.0
165.073153 238.0
166.072763 111.0
167.075363 165.0
168.084813 110.0
169.098573 87.0
170.080873 48.0
171.086532 44.0
172.120872 35.0
173.132522 75.0
175.093432 113.0
176.061782 98.0
177.056262 49.0
178.069231 77.0
178.075761 271.0
179.081151 116.0
179.089021 80.0
180.076231 41.0
181.071411 80.0
182.089171 82.0
182.188341 65.0
184.034911 80.0
184.110671 30.0
185.12225 55.0
186.12727 31.0
188.06081 69.0
189.0724 135.0
190.07591 148.0
191.01843 83.0
191.08479 78.0
192.006729 33.0
192.089539 81.0
192.990769 93.0
193.091489 33.0
194.086469 50.0
195.100469 59.0
196.114339 47.0
197.129459 38.0
199.102588 32.0
199.144038 64.0
200.061658 26.0
201.163348 172.0
202.074428 203.0
203.079708 62.0
203.135578 126.0
203.152308 92.0
204.086108 53.0
205.068307 87.0
206.082407 70.0
207.034167 166.0
207.099017 46.0
208.106807 58.0
210.099917 48.0
210.999707 36.0
211.086517 48.0
213.090936 58.0
213.162456 137.0
215.081856 40.0
215.175256 104.0
217.082046 58.0
217.099366 53.0
218.080546 33.0
219.079895 82.0
220.090225 30.0
221.110185 79.0
222.047805 43.0
223.101545 47.0
223.143975 57.0
225.044525 30.0
227.078574 30.0
228.095344 57.0
229.078794 41.0
230.184734 48.0
231.075864 72.0
231.171184 23.0
233.092063 53.0
234.071233 29.0
235.077983 54.0
236.083883 28.0
239.005393 78.0
239.102353 59.0
240.092522 28.0
241.099952 31.0
243.092122 38.0
247.074881 44.0
248.081411 44.0
249.150291 45.0
251.103961 75.0
252.084431 36.0
253.060601 54.0
253.17593 31.0
255.06863 31.0
255.17815 33.0
259.07381 45.0
259.16683 68.0
263.070459 23.0
265.018849 56.0
267.000048 31.0
267.118518 42.0
269.226458 62.0
270.088708 56.0
271.097498 41.0
273.146538 40.0
273.182178 49.0
276.073477 66.0
277.068867 32.0
277.179767 48.0
279.102707 48.0
280.106857 44.0
281.053666 141.0
281.098006 72.0
283.100386 26.0
287.191246 61.0
288.169875 29.0
291.104145 248.0
291.139235 132.0
292.106155 24.0
293.244125 26.0
295.129314 38.0
296.111284 47.0
297.039174 84.0
299.166914 57.0
305.179733 64.0
308.101093 39.0
309.118182 26.0
311.114152 75.0
312.196732 40.0
323.12797 115.0
341.067758 2712.0

