>compound 
>formula C26H28O15
>parentmass 581.15010119599
>ionization [M + H]+
>instrumentation Unknown (LCMS)
>source file:/Users/fanzhoukong/Documents/GitHub/Libgen/data/EAD_PFP/0_unknown_/spectrum.ms
>quality UNKNOWN

>ms2peaks
50.016 97.0
51.023508 356.0
52.024107 6.0
52.031877 40.0
53.037986 92.0
54.034285 5.0
55.054384 186.0
55.934463 8.0
56.049553 13.0
57.034402 17.0
57.071392 16.0
57.935321 9.0
58.065141 30.0
59.928869 4.0
60.985317 38.0
61.009037 7.0
62.013976 42.0
63.023225 137.0
64.028874 28.0
65.040103 637.0
66.043342 79.0
67.055051 226.0
68.05587 10.0
68.996539 122.0
70.065797 5.0
71.049106 9.0
72.935864 11.0
73.048854 5.0
74.014883 39.0
75.013552 23.0
75.023732 46.0
76.031731 97.0
77.03957 767.0
78.035879 5.0
78.045399 123.0
79.054258 285.0
80.052946 52.0
81.069365 86.0
82.065584 7.0
83.087513 7.0
86.01583 10.0
87.025439 20.0
87.040979 5.0
88.029908 16.0
89.039227 243.0
90.044065 40.0
90.758455 5.0
91.056404 1803.0
92.055613 147.0
92.996022 9.0
93.059322 22.0
93.064052 41.0
94.063731 46.0
95.07257 14.0
95.952409 11.0
96.081999 11.0
97.014718 12.0
97.064898 8.0
97.950967 11.0
98.097427 9.0
99.009636 6.0
99.991684 12.0
100.024014 3.0
102.045522 70.0
103.052421 99.0
104.05927 26.0
105.057959 12.0
105.068999 147.0
106.067468 62.0
107.059507 7.0
107.084847 6.0
109.055384 5.0
109.063574 12.0
109.101424 11.0
110.999512 7.0
112.007041 15.0
112.99933 26.0
114.040989 6.0
115.054838 499.0
116.058407 33.0
117.061026 53.0
118.061575 36.0
119.082423 57.0
120.080812 31.0
121.100631 11.0
123.042329 7.0
123.085799 9.0
126.047626 28.0
126.902535 14.0
127.054865 75.0
128.062794 287.0
129.065792 54.0
130.066011 85.0
130.99161 35.0
131.05888 6.0
131.06672 26.0
131.07794 21.0
132.018369 7.0
132.078029 23.0
133.014128 13.0
133.077408 21.0
133.096618 8.0
134.090737 12.0
135.076046 5.0
135.115896 7.0
137.036844 5.0
139.054481 47.0
140.04972 22.0
140.920529 6.0
141.068269 127.0
141.928258 16.0
142.069508 70.0
143.074267 29.0
144.082576 46.0
145.064925 6.0
145.077905 25.0
145.083795 46.0
145.967754 13.0
146.096784 26.0
146.150064 14.0
146.155984 28.0
147.078833 7.0
147.157272 11.0
147.965262 11.0
148.115441 6.0
149.0588 5.0
150.044749 12.0
151.056818 55.0
152.062607 129.0
153.065696 27.0
154.069645 46.0
155.076874 9.0
156.076373 5.0
156.084943 12.0
157.088902 9.0
158.09855 16.0
159.086709 11.0
159.100309 8.0
160.113898 13.0
162.128306 5.0
163.052655 13.0
164.063684 29.0
165.070293 124.0
166.062302 18.0
166.071142 33.0
167.076281 44.0
168.055259 18.0
168.069219 13.0
169.048528 6.0
169.075268 34.0
169.093108 14.0
170.077957 13.0
170.094577 16.0
171.045166 12.0
171.070786 9.0
171.096416 9.0
172.106355 9.0
173.062524 7.0
173.102494 9.0
174.102813 6.0
175.147482 8.0
176.065291 25.0
177.061069 12.0
177.089749 14.0
178.072748 22.0
178.076648 57.0
179.078117 30.0
180.058716 11.0
180.081056 20.0
180.090256 13.0
181.063085 13.0
181.074935 26.0
181.092095 13.0
182.090074 19.0
182.100654 16.0
182.190554 5.0
183.044423 7.0
183.100083 9.0
184.114212 7.0
185.039181 12.0
185.087161 6.0
185.116481 15.0
185.132481 5.0
187.056838 6.0
187.118468 6.0
188.063027 14.0
189.070596 49.0
189.127176 9.0
190.075445 20.0
191.003074 46.0
191.080254 14.0
191.153394 6.0
192.083643 15.0
192.979392 25.0
193.088282 14.0
193.985001 7.0
194.101001 10.0
195.09722 19.0
195.1109 8.0
197.061557 34.0
198.068086 8.0
198.125996 8.0
199.084085 4.0
200.068064 8.0
201.071123 20.0
202.078072 31.0
203.084771 22.0
204.07716 19.0
204.14994 5.0
205.070569 6.0
205.081799 16.0
205.091619 19.0
206.084677 10.0
207.032206 69.0
208.032775 16.0
208.106255 5.0
209.030074 7.0
209.116484 6.0
210.066703 8.0
210.126333 6.0
211.145722 5.0
212.140471 5.0
213.05319 11.0
213.13612 5.0
215.081278 18.0
216.067976 9.0
216.090996 8.0
217.090115 9.0
217.103095 7.0
218.097294 19.0
219.124233 5.0
220.111412 10.0
221.116841 14.0
223.059959 5.0
223.092139 7.0
225.043887 13.0
225.057117 28.0
226.060505 28.0
226.073765 19.0
227.070574 10.0
227.123704 5.0
228.076943 7.0
229.085572 9.0
230.074111 6.0
231.07372 9.0
231.10946 6.0
232.106839 8.0
234.117027 6.0
235.119355 6.0
237.109343 22.0
238.057602 7.0
239.089521 7.0
240.07968 7.0
241.049059 16.0
242.061538 14.0
242.092028 7.0
242.987557 14.0
244.095926 5.0
245.099434 6.0
246.121923 5.0
248.99186 5.0
249.14338 8.0
250.059589 7.0
251.124938 5.0
251.165318 7.0
252.164587 6.0
253.048936 8.0
254.056605 85.0
255.064723 13.0
255.099153 13.0
258.05072 10.0
258.1231 7.0
261.109457 9.0
261.149037 6.0
265.021233 19.0
265.070692 8.0
266.022111 7.0
266.058851 12.0
267.00563 8.0
267.06166 12.0
268.042309 9.0
268.074389 10.0
269.047258 63.0
270.055677 71.0
271.124066 6.0
273.131144 5.0
275.163491 5.0
277.164249 6.0
279.114967 6.0
281.051145 106.0
282.050534 27.0
282.055484 50.0
283.061613 64.0
284.069512 20.0
285.07428 235.0
287.052578 25.0
289.179286 6.0
293.172751 6.0
295.062759 25.0
296.069898 7.0
297.078747 1757.0
299.079575 8.0
301.070103 6.0
301.194193 3.0
307.151706 7.0
307.192906 6.0
309.118924 11.0
309.153354 6.0
311.049222 7.0
315.181727 10.0
319.148973 6.0
321.147141 9.0
321.173481 7.0
329.099192 6.0
331.1728 9.0
333.134917 6.0
335.138705 6.0
337.128693 9.0
337.474123 3.0
339.180511 7.0
340.22772 3.0
351.251147 4.0
359.219889 6.0
363.178044 6.0
365.193332 7.0
367.09405 16.0
369.093808 3.0
377.234699 6.0
379.166457 8.0
379.248487 6.0
387.089358 6.0
393.225131 5.0
403.07863 9.0
406.140757 7.0
407.247086 6.0
409.222424 6.0
419.152773 5.0
420.156161 12.0
422.194729 7.0
423.215878 15.0
426.250265 6.0
429.064172 6.0
435.187575 6.0
436.183364 23.0
441.239108 6.0
449.10986 18.0
451.267357 9.0
453.217275 6.0
465.146652 5.0
465.184702 6.0
469.250217 6.0
477.271668 6.0
479.266226 6.0
483.155812 14.0
483.173022 27.0
491.003823 6.0
493.235671 6.0
495.239269 6.0
501.199892 6.0
503.28772 6.0
507.288845 8.0
509.241173 7.0
521.30897 18.0
537.314932 8.0
539.28551 6.0
545.298873 7.0
546.278362 8.0
547.100691 27.0
548.11393 6.0
549.334699 6.0
551.278847 6.0
563.029814 7.0
563.225124 6.0
563.266934 12.0
563.315764 12.0
563.336694 8.0
565.114462 7.0
565.335711 5.0
579.130986 6.0
580.135685 39.0
581.141304 42.0
581.181464 18.0
581.278264 483.0
581.318424 193.0
581.339664 140.0
581.401064 5.0

