>compound 
>formula C14H22O3
>parentmass 261.14611556777004
>ionization [M + Na]+
>instrumentation Unknown (LCMS)
>source file:/Users/fanzhoukong/Documents/GitHub/Libgen/data/EAD_PFP/0_unknown_/spectrum.ms
>quality UNKNOWN

>ms2peaks
50.014852 88.0
51.023753 153.0
52.030724 33.0
53.038255 47.0
54.033115 6.0
55.053946 158.0
55.934037 26.0
56.052057 19.0
56.941528 13.0
57.033228 10.0
57.069488 12.0
57.934159 7.0
59.92997 7.0
60.984141 70.0
62.014342 30.0
63.023603 150.0
64.027694 11.0
65.038925 719.0
66.038965 27.0
67.053066 153.0
68.024777 7.0
68.055487 8.0
68.993728 81.0
69.070228 22.0
70.063789 10.0
71.04957 17.0
72.934671 8.0
74.015372 26.0
75.009813 24.0
75.022533 48.0
76.030534 37.0
77.039235 1001.0
78.044196 84.0
79.053056 151.0
80.052617 35.0
81.067288 95.0
82.075019 7.0
83.04703 14.0
83.08542 20.0
84.046301 10.0
85.041611 6.0
87.021493 6.0
88.029624 5.0
89.038015 172.0
90.044706 30.0
91.054257 887.0
92.058157 148.0
93.058108 17.0
93.069448 53.0
94.067269 35.0
95.0876 50.0
95.953111 8.0
97.064642 25.0
99.076653 6.0
99.995364 8.0
101.041355 10.0
102.045286 50.0
103.056167 124.0
104.048047 14.0
104.055048 18.0
105.070788 184.0
106.066239 19.0
106.073309 11.0
107.08464 26.0
108.080391 5.0
109.063372 8.0
109.100202 8.0
110.998283 8.0
111.080863 5.0
112.004774 7.0
113.002275 45.0
113.059555 5.0
114.038716 7.0
115.053617 421.0
116.052958 20.0
116.059288 41.0
117.067218 148.0
118.037999 5.0
118.058219 40.0
119.06195 6.0
119.07799 12.0
119.08333 32.0
120.086031 14.0
121.064912 15.0
121.086472 19.0
121.100482 11.0
122.094303 7.0
123.080224 37.0
123.086754 23.0
123.117184 7.0
123.998114 6.0
125.096845 10.0
126.045296 13.0
126.903517 11.0
127.053637 94.0
128.061558 185.0
129.054559 17.0
129.069029 56.0
130.064779 47.0
131.05091 413.0
132.018261 13.0
132.055411 5.0
132.067801 8.0
132.079051 11.0
133.064882 17.0
133.073912 16.0
133.981763 8.0
134.984874 8.0
135.079374 8.0
135.118084 12.0
137.059695 7.0
137.095245 7.0
139.056737 31.0
141.069369 78.0
141.923509 10.0
142.05893 12.0
142.07761 13.0
143.07538 26.0
144.055491 8.0
144.081351 10.0
145.067232 17.0
145.081402 15.0
145.088482 19.0
145.967723 16.0
147.043164 8.0
147.091864 6.0
147.960454 12.0
148.123755 9.0
149.061165 8.0
149.097045 9.0
150.047116 11.0
151.051987 14.0
151.064027 12.0
152.062608 91.0
152.997819 9.0
153.058429 25.0
153.068109 65.0
154.07207 30.0
154.90613 6.0
155.0598 13.0
155.0842 31.0
156.086171 18.0
157.049622 9.0
157.074172 15.0
157.081542 11.0
157.096282 21.0
158.091173 11.0
158.104723 11.0
159.044724 40.0
159.079314 23.0
159.096604 15.0
159.118854 11.0
160.053195 27.0
160.080445 15.0
161.061116 283.0
162.048516 12.0
162.133326 10.0
163.000157 36.0
163.112737 5.0
164.059958 28.0
165.056499 13.0
165.072849 74.0
166.07372 25.0
167.071271 16.0
167.081401 38.0
168.071821 25.0
168.090861 22.0
169.084252 20.0
169.095712 22.0
169.123742 7.0
170.069093 10.0
171.068294 9.0
171.087504 14.0
172.085865 11.0
173.060046 18.0
173.097416 42.0
173.133496 12.0
174.051196 7.0
175.041277 70.0
175.058117 18.0
175.111267 5.0
175.147567 7.0
176.013388 14.0
176.060168 20.0
177.057259 17.0
177.126349 9.0
178.06369 12.0
178.07544 27.0
179.032341 7.0
179.063801 11.0
179.084771 22.0
180.054872 5.0
180.081172 14.0
180.989382 9.0
181.064502 7.0
181.075062 10.0
181.086922 8.0
182.073003 8.0
182.080943 10.0
183.082974 17.0
183.110804 13.0
184.085095 6.0
184.101035 6.0
185.044646 29.0
185.115286 6.0
186.104247 9.0
187.040887 20.0
187.067687 5.0
187.111907 20.0
188.033628 10.0
189.057279 1187.0
190.0621 308.0
191.001881 31.0
191.019481 14.0
191.069581 13.0
191.080411 5.0
191.104781 7.0
192.003712 6.0
192.071562 7.0
192.086522 8.0
192.979572 18.0
193.073473 9.0
193.122483 10.0
194.124373 8.0
195.080984 13.0
197.071366 6.0
197.096116 14.0
197.123636 10.0
198.077937 6.0
199.064938 9.0
199.113318 11.0
200.066868 24.0
200.076578 14.0
201.058819 29.0
201.089379 22.0
201.111609 9.0
201.125499 10.0
202.04348 8.0
202.07272 20.0
203.048681 21.0
203.073821 6.0
204.082972 6.0
205.160583 8.0
207.033844 50.0
208.034425 16.0
208.141815 12.0
210.098157 8.0
210.106687 13.0
211.074798 6.0
211.985228 5.0
213.089189 13.0
214.07705 6.0
215.084421 6.0
215.111711 15.0
215.141901 20.0
215.180681 21.0
216.062472 6.0
216.089832 6.0
217.074503 31.0
217.090383 10.0
218.087454 6.0
219.134654 8.0
221.098196 7.0
223.115838 8.0
225.12944 13.0
225.16472 6.0
226.15362 7.0
227.062031 15.0
227.106311 9.0
228.060992 117.0
229.074023 13.0
229.127393 7.0
230.049184 7.0
231.047244 12.0
231.082985 9.0
232.087775 7.0
234.132357 6.0
243.137615 1030.0
244.064175 7.0
244.084055 6.0
245.067626 28.0
246.071597 69.0
248.98763 14.0
250.968601 8.0
257.085836 5.0
259.130248 14.0
261.11627 1397.0

