>compound 
>formula C26H24O12
>parentmass 529.1340572083601
>ionization [M + H]+
>instrumentation Unknown (LCMS)
>source file:/Users/fanzhoukong/Documents/GitHub/Libgen/data/EAD_PFP/0_unknown_/spectrum.ms
>quality UNKNOWN

>ms2peaks
123.993824 11.0
126.044259 57.0
127.054806 60.0
128.059403 148.0
129.06461 47.0
130.064828 59.0
131.066655 27.0
132.082462 18.0
133.02421 44.0
134.037347 58.0
137.021839 27.0
139.049784 85.0
140.053091 50.0
141.073998 146.0
142.049546 58.0
143.077703 56.0
144.08366 38.0
145.067177 48.0
145.966475 18.0
146.031575 11.0
147.110812 17.0
147.96755 59.0
165.017304 46.0
165.056324 53.0
166.074801 117.0
167.066018 51.0
168.067826 95.0
168.084336 85.0
169.082783 105.0
171.102697 35.0
172.085645 29.0
173.058532 24.0
176.011844 59.0
176.022234 63.0
176.062534 83.0
177.021822 821.0
178.071289 87.0
179.000636 184.0
179.084526 48.0
180.084843 51.0
181.011531 53.0
181.099841 37.0
182.072738 46.0
182.187768 33.0
183.037625 58.0
183.115835 23.0
184.048933 25.0
184.112733 19.0
186.051827 18.0
187.055335 27.0
187.130364 37.0
189.023299 329.0
190.079347 29.0
191.001554 40.0
191.035414 103.0
192.084811 31.0
192.980599 114.0
194.084456 40.0
195.030013 68.0
195.073793 34.0
197.055868 59.0
201.015377 20.0
201.143187 22.0
202.075114 58.0
203.080412 49.0
205.008666 100.0
205.050756 57.0
205.101246 26.0
207.029191 51.0
207.034831 140.0
208.036818 51.0
209.031306 41.0
210.138903 31.0
210.99182 56.0
214.062252 22.0
215.076769 76.0
217.014844 21.0
218.023311 735.0
219.029769 213.0
220.109746 60.0
221.099153 52.0
223.058278 31.0
225.043663 13.0
228.088544 17.0
229.071992 40.0
231.025847 74.0
235.137155 25.0
239.077185 18.0
241.05185 49.0
243.034664 78.0
245.048569 49.0
246.112446 40.0
247.060043 91.0
249.158558 31.0
251.163502 12.0
253.029967 36.0
255.075412 19.0
257.050557 40.0
259.061721 48.0
260.074959 42.0
261.041116 106.0
265.059225 23.0
265.070395 24.0
267.12383 12.0
269.053394 89.0
271.059279 3216.0
273.041814 37.0
276.269315 41.0
279.045918 19.0
281.045912 34.0
281.047562 161.0
282.053539 45.0
283.081067 951.0
285.078921 58.0
287.038966 12.0
287.055566 51.0
289.070701 65.0
291.057785 12.0
297.036189 29.0
299.074154 38.0
311.052332 63.0
312.065599 115.0
313.075306 277.0
323.188189 14.0
325.071794 75.0
337.067152 16.0
341.104251 46.0
349.254229 12.0
355.083613 166.0
362.252234 12.0
363.089882 26.0
365.086186 25.0
367.247551 17.0
372.080518 37.0
373.073225 53.0
373.092145 136.0
379.211788 22.0
383.201578 23.0
391.104297 57.0
409.087158 139.0
447.257316 18.0
455.260714 47.0
465.268617 41.0
475.092781 12.0
476.210148 15.0
511.134584 52.0
511.265264 13.0
529.184126 55.0
529.254015 384.0
529.283315 400.0

