>compound 
>formula C10H12N2O3
>parentmass 231.07401325433
>ionization [M + Na]+
>instrumentation Unknown (LCMS)
>source file:/Users/fanzhoukong/Documents/GitHub/Libgen/data/EAD_PFP/0_unknown_/spectrum.ms
>quality UNKNOWN

>ms2peaks
50.01743 89.0
51.022848 278.0
52.017787 4.0
52.030507 30.0
53.035176 17.0
53.038736 81.0
54.034325 10.0
54.045845 7.0
55.053704 147.0
56.049593 9.0
56.965662 17.0
57.069962 33.0
57.934621 12.0
58.065181 10.0
59.05094 9.0
59.929669 7.0
60.985367 23.0
61.010617 7.0
62.016336 73.0
63.023275 177.0
64.032064 13.0
65.038573 941.0
66.043392 54.0
67.053501 190.0
68.05027 5.0
68.994969 80.0
69.070669 24.0
71.049166 14.0
72.937604 22.0
74.016623 44.0
75.019552 23.0
76.030941 97.0
77.03792 690.0
78.046329 130.0
79.054328 432.0
80.048626 34.0
81.064145 38.0
81.069435 89.0
82.063874 11.0
83.050973 24.0
83.085803 13.0
85.066381 15.0
86.01499 26.0
87.024599 27.0
88.022628 15.0
88.033658 15.0
89.037447 176.0
90.044135 27.0
91.055544 1472.0
92.058503 110.0
92.995152 8.0
93.068852 146.0
94.065711 37.0
95.05068 8.0
95.0717 21.0
95.08507 44.0
95.954409 10.0
96.081109 18.0
97.065938 7.0
97.950077 9.0
98.091687 6.0
101.037733 19.0
101.059403 14.0
102.045602 165.0
103.052501 170.0
104.05136 28.0
105.071089 167.0
106.066548 58.0
107.073787 6.0
107.083917 47.0
108.081706 12.0
110.098363 7.0
111.043982 24.0
112.010241 4.0
112.99943 6.0
113.03692 78.0
114.031659 8.0
114.045259 17.0
115.051778 332.0
116.055337 104.0
117.060066 91.0
117.067486 84.0
119.085723 38.0
120.083062 11.0
121.063001 10.0
121.097491 12.0
122.09671 6.0
123.117419 15.0
125.081737 16.0
125.095977 28.0
126.046626 30.0
126.902635 7.0
127.053865 102.0
128.058454 215.0
128.903473 6.0
129.060352 254.0
130.066111 1209.0
130.99396 38.0
131.06796 13.0
131.07693 24.0
132.080399 261.0
133.067328 9.0
133.101238 20.0
134.065877 8.0
134.097647 19.0
135.079566 30.0
135.088676 14.0
135.116006 15.0
136.118785 7.0
138.034143 5.0
139.045351 102.0
139.052291 34.0
140.051 602.0
141.064879 120.0
141.927198 8.0
142.067278 67.0
143.046267 7.0
143.075557 73.0
143.082577 54.0
144.081516 159.0
145.065045 28.0
145.072125 15.0
145.101625 8.0
145.971414 7.0
146.061384 138.0
147.012443 6.0
147.968962 13.0
149.0984 11.0
150.044849 18.0
151.053318 22.0
152.061527 77.0
153.069466 28.0
153.087636 36.0
154.067345 31.0
155.062364 32.0
156.066713 51.0
156.887722 12.0
157.077992 134.0
158.06419 38.0
158.07527 5.0
159.091789 493.0
161.098517 6.0
163.054035 14.0
164.061314 17.0
165.071673 105.0
166.054872 66.0
167.062491 1194.0
168.045219 11.0
168.063009 30.0
168.080779 23.0
169.052488 11.0
169.079238 32.0
169.094528 25.0
170.062757 63.0
170.097257 7.0
171.090146 16.0
171.109356 17.0
172.097485 9.0
172.110345 12.0
173.091034 10.0
173.106484 13.0
174.043503 5.0
174.133973 11.0
175.073722 7.0
175.143752 5.0
176.064131 25.0
176.98953 7.0
177.059909 9.0
178.076808 56.0
178.964227 5.0
179.071707 6.0
179.086127 39.0
180.085146 26.0
180.986785 8.0
181.088275 23.0
182.080964 6.0
182.095504 13.0
182.192024 11.0
183.055163 13.0
184.065182 315.0
184.465451 9.0
185.075321 2820.0
186.0468 10.0
186.07217 8.0
187.073058 10.0
187.087798 23.0
188.069907 77.0
189.054586 6.0
189.069406 40.0
190.064795 7.0
190.074255 32.0
191.000524 28.0
191.074994 8.0
192.082433 34.0
192.980922 37.0
193.083002 6.0
194.099801 11.0
195.05907 43.0
196.111238 13.0
197.080967 10.0
199.093935 7.0
201.056013 5.0
201.071283 19.0
202.062942 9.0
202.075462 21.0
203.084941 32.0
203.146371 6.0
204.07873 12.0
204.09413 7.0
204.14732 6.0
205.080559 8.0
206.093287 10.0
207.033786 68.0
208.035775 11.0
208.114885 12.0
209.030264 10.0
209.092574 8.0
210.127913 8.0
212.089291 7.0
213.06195 13.0
213.13058 10.0
214.075529 6.0
215.087198 19.0
217.088845 7.0
219.117153 6.0
222.12912 7.0
224.145598 6.0
225.042607 13.0
226.047435 6.0
227.081064 7.0
229.096122 6.0
231.07986 287.0

