>compound 
>formula C5H4N4O2
>parentmass 153.037872314453
>ionization [M + H]+
>instrumentation Unknown (LCMS)
>source file:/Users/fanzhoukong/Documents/GitHub/Libgen/data/NIST_MONA/0_unknown_/spectrum.ms
>quality UNKNOWN

>ms2peaks
44.9915 1.53
58.9433 1.27
60.9835 5.58
70.9771 3.07
72.9878 4.86
75.0021 8.66
77.0162 2.28
78.9933 1.9
84.9595 100.0
84.9979 2.48
85.0429 1.34
86.5328 1.28
88.954 9.82
88.9794 1.47
90.9977 1.92
93.0126 64.23
93.0527 2.26
93.0677 1.3
102.9339 3.2
102.9681 3.19
102.997 23.69
104.9492 1.78
107.0284 26.66
110.0304 3.89
116.9516 5.94
116.9798 1.79
121.0082 34.91
121.0449 3.3
134.9805 2.3
135.0227 9.35
153.0451 6.49

