>compound 
>formula C26H36O4
>parentmass 413.26864063856
>ionization [M + H]+
>instrumentation Unknown (LCMS)
>source file:/Users/fanzhoukong/Documents/GitHub/Libgen/data/EAD_PFP/0_unknown_/spectrum.ms
>quality UNKNOWN

>ms2peaks
50.016033 180.0
51.02284 418.0
52.022727 60.0
52.029787 79.0
53.039445 123.0
54.037192 37.0
55.051499 83.0
55.935227 18.0
56.057647 38.0
57.071414 71.0
58.041271 31.0
59.052418 17.0
60.983803 83.0
62.017071 43.0
63.023238 351.0
64.024175 28.0
65.039322 1560.0
66.04573 74.0
67.054247 251.0
68.049404 32.0
68.995722 248.0
70.064969 22.0
71.087096 34.0
72.084173 15.0
74.014028 32.0
75.009296 46.0
75.022876 65.0
76.030003 122.0
77.04041 1270.0
78.042777 255.0
79.053365 547.0
80.052042 123.0
81.070229 194.0
82.063777 34.0
83.084804 29.0
85.040979 45.0
86.016706 17.0
87.020833 15.0
88.030791 32.0
89.039178 351.0
90.039365 50.0
91.054493 1156.0
92.05086 87.0
92.05932 175.0
93.063057 117.0
94.044674 26.0
94.066534 59.0
95.056282 48.0
95.078252 52.0
96.079059 34.0
98.015874 25.0
101.040536 19.0
102.045453 123.0
103.05235 131.0
104.049198 45.0
105.051855 46.0
105.072945 203.0
106.068392 67.0
107.077669 39.0
107.091859 28.0
108.084597 23.0
109.098274 39.0
111.001489 32.0
111.119179 29.0
113.000284 54.0
114.030431 19.0
114.048211 34.0
115.053698 529.0
116.058305 94.0
117.066233 171.0
118.06573 47.0
119.057727 34.0
119.085527 61.0
120.080715 52.0
122.098669 11.0
123.043307 185.0
124.041774 16.0
125.039891 13.0
126.047509 60.0
127.051436 119.0
128.061563 269.0
129.06789 163.0
130.064768 91.0
131.048645 98.0
131.080055 50.0
132.020492 45.0
132.046372 32.0
132.085782 23.0
133.07274 23.0
133.10213 18.0
134.012337 21.0
134.065657 21.0
135.082744 19.0
135.107784 35.0
137.063069 20.0
137.121559 27.0
139.054354 112.0
140.051871 19.0
141.064628 32.0
141.071598 184.0
141.928086 26.0
142.071685 48.0
142.077515 71.0
143.076453 88.0
144.07301 39.0
144.08243 90.0
145.073027 22.0
145.968775 35.0
147.097692 28.0
147.96154 30.0
149.026357 25.0
150.044574 26.0
151.049421 34.0
152.063649 117.0
153.069156 88.0
154.073103 41.0
155.070601 56.0
156.076198 25.0
157.078895 13.0
158.090962 42.0
158.098362 29.0
161.095714 16.0
162.998679 17.0
163.056209 62.0
164.059726 42.0
165.068834 199.0
166.063371 29.0
166.072201 42.0
167.077348 34.0
168.056316 24.0
168.085526 35.0
169.067433 29.0
170.03176 16.0
170.08797 34.0
170.09691 46.0
171.001388 66.0
171.087238 26.0
172.112565 20.0
173.113892 15.0
173.133202 19.0
175.151157 15.0
176.062454 41.0
177.062151 22.0
178.077739 89.0
179.080516 38.0
179.087066 51.0
180.087413 41.0
181.070761 27.0
182.071338 25.0
182.095128 27.0
184.027583 15.0
184.103343 52.0
185.10826 17.0
186.127927 16.0
187.051225 14.0
187.146364 11.0
188.143402 13.0
189.029949 62.0
189.070359 21.0
190.076547 27.0
191.002814 105.0
191.081374 29.0
192.091531 37.0
192.983239 48.0
193.097558 43.0
194.093916 68.0
195.088763 19.0
195.105183 37.0
197.075048 21.0
199.139122 13.0
202.083384 61.0
203.080312 25.0
203.144521 33.0
204.069889 32.0
204.082499 37.0
205.087126 25.0
206.101273 41.0
207.034741 68.0
208.117278 20.0
209.019886 14.0
209.120465 11.0
211.09561 19.0
211.977558 18.0
212.140177 17.0
213.071485 15.0
215.083849 25.0
217.099914 24.0
218.094111 51.0
219.110879 23.0
220.089306 14.0
221.112153 14.0
223.097668 29.0
224.130425 8.0
226.07491 24.0
227.082047 32.0
227.182457 24.0
229.097102 22.0
230.100519 15.0
232.110984 15.0
233.106041 16.0
237.10297 13.0
239.124025 18.0
241.120209 13.0
242.979574 17.0
244.087921 44.0
248.989948 12.0
251.163392 16.0
255.137902 18.0
265.017665 30.0
267.00045 17.0
267.993817 12.0
272.145666 27.0
277.196433 15.0
281.055642 59.0
282.051769 20.0
283.047977 14.0
285.144961 20.0
296.297061 17.0
301.130818 80.0
301.144428 765.0
313.139326 17.0
349.202799 17.0
353.083439 35.0
355.183163 35.0
360.259809 17.0
367.224851 14.0
383.218668 60.0
395.297985 21.0
395.372015 18.0
397.24418 11.0
411.249542 55.0
413.266407 4183.0

