>compound 
>formula C22H34O7
>parentmass 411.2377344328101
>ionization [M + H]+
>instrumentation Unknown (LCMS)
>source file:/Users/fanzhoukong/Documents/GitHub/Libgen/data/EAD_PFP/0_unknown_/spectrum.ms
>quality UNKNOWN

>ms2peaks
114.029665 22.0
115.055038 1862.0
116.057562 232.0
117.067615 504.0
119.081602 279.0
119.084812 1547.0
120.063905 66.0
121.073959 511.0
121.096589 454.0
123.082835 268.0
125.088532 56.0
126.043555 78.0
127.050799 369.0
128.062032 1326.0
129.070616 445.0
130.076449 75.0
131.046942 69.0
131.085053 259.0
133.100409 98.0
143.080653 49.0
145.09617 646.0
147.084167 844.0
149.094094 861.0
150.044147 129.0
151.06947 878.0
152.062044 1121.0
153.068777 1136.0
154.075151 311.0
155.084864 926.0
156.091737 432.0
157.090821 784.0
158.074624 112.0
158.102944 378.0
159.093608 1548.0
160.086121 195.0
160.103461 278.0
161.056854 565.0
161.096644 120.0
162.084158 170.0
163.085941 841.0
164.061944 171.0
165.071068 1209.0
166.079511 242.0
167.085955 563.0
168.054788 168.0
168.090358 66.0
169.090111 399.0
169.101591 295.0
170.105625 338.0
171.103668 425.0
172.093072 248.0
173.133005 1668.0
174.084298 96.0
175.140592 1727.0
175.149672 1948.0
176.063585 86.0
177.121959 653.0
177.128469 2227.0
178.078902 503.0
179.081675 403.0
179.088245 555.0
180.092529 242.0
181.089082 406.0
182.080465 179.0
183.082499 251.0
183.095759 560.0
184.084622 109.0
185.110826 499.0
185.126816 610.0
186.105129 283.0
187.076612 2186.0
189.086469 115.0
189.101289 702.0
189.120149 895.0
190.130533 60.0
191.143606 5656.0
192.14988 124.0
193.157443 459.0
194.059806 141.0
195.10244 617.0
196.113583 118.0
197.097056 582.0
198.1037 158.0
199.112903 1021.0
200.108037 65.0
201.12787 4680.0
202.090423 158.0
203.143227 2392.0
204.15255 87.0
205.148964 243.0
206.105587 50.0
207.11238 266.0
208.089134 56.0
208.124454 23.0
209.151757 617.0
211.091504 331.0
212.116097 61.0
213.127431 1117.0
214.128274 93.0
215.107037 167.0
215.135768 167.0
217.134774 355.0
218.114568 150.0
219.137201 4005.0
221.153198 408.0
223.111115 564.0
225.095311 455.0
226.079645 75.0
227.117788 592.0
228.115412 46.0
229.124115 249.0
229.135975 407.0
230.130578 137.0
231.131812 808.0
232.124765 87.0
233.151259 663.0
233.157259 1296.0
235.135935 470.0
236.120889 48.0
237.148622 839.0
239.130509 147.0
241.190606 502.0
243.074712 69.0
243.134282 263.0
244.100626 75.0
245.150169 388.0
247.143586 470.0
249.146613 190.0
251.16859 728.0
253.083396 335.0
255.154113 417.0
255.165063 802.0
256.073486 70.0
257.14685 123.0
259.172587 1330.0
261.142964 154.0
263.10327 74.0
264.114864 42.0
265.144317 305.0
267.174014 34.0
269.188981 1375.0
271.096947 118.0
271.167927 220.0
273.186524 261.0
274.098877 98.0
275.102081 69.0
277.185798 184.0
279.162795 570.0
279.174245 293.0
281.051541 75.0
283.111448 89.0
285.187175 533.0
287.199082 964.0
289.128098 79.0
291.143795 100.0
293.163152 92.0
295.127209 55.0
297.165366 504.0
297.170456 5049.0
301.121639 131.0
303.190586 172.0
305.121173 65.0
307.141989 47.0
311.205353 73.0
315.199757 6366.0
317.117543 43.0
318.126647 54.0
319.13562 486.0
319.417451 23.0
321.144327 182.0
323.150524 112.0
328.105501 23.0
329.117714 72.0
331.137921 127.0
333.203658 246.0
333.207228 2725.0
339.181338 70.0
347.129585 594.0
349.145672 160.0
357.196209 255.0
357.211039 255.0
365.134436 541.0
374.209017 98.0
375.21027 1113.0
375.22544 729.0
389.702659 24.0
393.222481 226.0
410.348149 24.0
411.186012 355.0
411.229712 1087.0

