>compound 
>formula C8H14O4
>parentmass 175.0965
>ionization [M + H]+
>instrumentation Unknown (LCMS)
>source file:/Users/fanzhoukong/Documents/GitHub/Libgen/data/NIST_MONA/0_unknown_/spectrum.ms
>quality UNKNOWN

>ms2peaks
48.9918 0.220802
55.018 0.325392
61.0028 0.453225
62.06 0.220802
63.0314 0.325392
64.0051 0.337013
69.0181 0.383498
72.0204 0.255665
73.0767 0.429983
79.0537 0.360256
80.0212 0.290529
83.085 38.98896
84.0806 0.40674
87.0555 0.697269
87.0813 0.581058
93.0693 0.209181
95.0457 0.488088
95.0847 0.371877
97.064 0.790238
101.0595 0.209181
105.0427 0.697269
111.0799 15.502615
112.0529 0.255665
112.0841 0.813481
113.0563 0.30215
119.992 0.290529
120.0788 0.337013
121.0278 0.348635
126.0422 0.348635
127.0051 0.244044
129.1027 0.348635
136.0757 0.569436
139.075 1.487507
146.0226 0.40674
155.1181 0.395119
157.085 87.762929
158.0887 6.217316
170.0691 0.255665
172.997 0.522952
175.0954 100.0
177.0989 1.289948

