>compound 
>formula C22H22O8
>parentmass 432.16528866562
>ionization [M + H3N + H]+
>instrumentation Unknown (LCMS)
>source file:/Users/fanzhoukong/Documents/GitHub/Libgen/data/EAD_PFP/0_unknown_/spectrum.ms
>quality UNKNOWN

>ms2peaks
114.041602 54.0
115.058621 7621.0
116.06643 193.0
117.072269 4284.0
118.041998 129.0
119.050997 104.0
121.030156 949.0
122.037755 480.0
123.031054 128.0
123.044094 285.0
126.046111 505.0
127.054461 1726.0
128.05906 314.0
129.074299 181.0
131.050637 291.0
135.047184 102.0
138.071621 144.0
141.036469 110.0
143.051617 1785.0
144.058676 551.0
145.066905 7349.0
147.044014 1910.0
148.053093 557.0
149.024932 899.0
150.044361 416.0
151.0456 2784.0
152.061039 1577.0
153.060469 1535.0
154.061978 2186.0
155.053327 4364.0
156.057646 81.0
157.061525 103.0
158.047684 98.0
159.046813 1994.0
160.056533 373.0
161.058232 5720.0
162.033161 142.0
163.0498 666.0
164.049539 144.0
164.063329 202.0
165.064898 622.0
166.064477 360.0
167.054397 399.0
167.075937 530.0
168.077766 1555.0
169.088945 5514.0
171.039693 569.0
171.043533 2895.0
172.053312 1718.0
173.064772 10705.0
174.062391 286.0
175.07455 8944.0
176.064939 520.0
177.064628 717.0
178.080237 349.0
179.048946 92.0
179.065986 198.0
180.046566 204.0
181.087795 2667.0
183.050713 354.0
184.056732 181.0
185.068181 8761.0
186.032961 146.0
186.067711 195.0
187.0391 2336.0
188.050629 4574.0
189.060848 8639.0
190.069737 207.0
191.056916 221.0
191.077226 423.0
192.058885 135.0
193.063455 271.0
194.055664 70.0
195.065443 3152.0
196.053152 543.0
197.059871 306.0
199.04923 725.0
200.053899 1477.0
201.055528 5507.0
202.069437 550.0
203.077486 9721.0
204.068465 140.0
205.068884 661.0
206.071714 167.0
207.082653 219.0
208.073452 224.0
209.063781 1722.0
210.06924 226.0
211.070009 276.0
211.075699 833.0
212.048888 223.0
213.075788 202.0
215.037896 282.0
215.053706 155.0
217.047984 165.0
217.056634 275.0
219.063053 284.0
219.068853 11514.0
220.090792 101.0
221.087441 196.0
222.06151 116.0
223.069919 399.0
223.093329 388.0
224.049818 358.0
225.061267 413.0
226.067607 183.0
226.079387 530.0
227.036346 247.0
227.067356 191.0
228.044145 380.0
229.058604 10688.0
230.067893 157.0
231.082392 484.0
231.101752 181.0
233.046271 194.0
233.070211 248.0
234.06731 193.0
235.078549 301.0
236.091968 124.0
237.053277 908.0
237.077417 565.0
238.061876 778.0
239.071106 1429.0
240.041495 200.0
241.086844 289.0
243.068272 71.0
245.04552 123.0
246.06943 272.0
247.070829 21887.0
248.089698 220.0
248.305748 164.0
248.447798 195.0
248.874157 266.0
249.061187 322.0
249.085917 186.0
250.062446 99.0
251.067285 181.0
251.078145 339.0
252.047695 100.0
252.085015 271.0
253.050274 119.0
254.064203 580.0
255.069202 780.0
257.08988 87.0
259.075959 140.0
260.081328 60.0
261.091827 236.0
262.061466 192.0
262.104276 147.0
263.064695 336.0
264.080964 126.0
265.068874 258.0
266.061853 141.0
267.066252 1514.0
268.066161 330.0
269.0856 979.0
270.052269 72.0
271.077078 134.0
274.067526 128.0
275.073935 277.0
275.085315 727.0
276.078934 347.0
277.085773 933.0
278.066662 126.0
279.068922 166.0
279.095112 365.0
280.079571 92.0
281.06081 91.0
282.091479 7746.0
283.066358 1001.0
283.086128 608.0
284.066047 129.0
285.079047 100.0
288.085674 127.0
289.087503 600.0
290.084392 509.0
291.071291 633.0
291.089661 515.0
292.090001 352.0
293.10212 511.0
294.095829 146.0
295.074378 161.0
297.068456 288.0
298.084076 2767.0
299.091245 247.0
301.114133 133.0
304.07067 238.0
305.08279 662.0
306.096579 3090.0
307.094898 655.0
308.101707 552.0
309.077416 189.0
311.055984 107.0
311.102614 129.0
312.105614 3616.0
313.110183 13844.0
314.088612 160.0
317.076609 176.0
318.090929 85.0
319.092818 959.0
320.108597 3099.0
321.111916 2534.0
322.097455 178.0
322.122075 897.0
323.089824 740.0
323.105664 551.0
324.092503 141.0
324.103093 269.0
325.103833 196.0
326.083102 64.0
327.099281 158.0
329.116829 411.0
332.070007 75.0
333.075806 316.0
334.067015 89.0
334.092075 153.0
335.068634 222.0
335.109894 303.0
336.100523 523.0
337.110592 1216.0
338.118592 1491.0
339.088401 145.0
339.117271 457.0
340.10113 142.0
341.111779 284.0
341.153379 188.0
346.079945 99.0
347.092094 710.0
348.103933 2214.0
349.073292 326.0
349.102582 387.0
351.128071 5443.0
352.12553 147.0
353.135449 451.0
353.142809 1272.0
354.109968 328.0
355.126417 1862.0
364.08396 111.0
364.098909 455.0
365.095919 351.0
365.114629 441.0
366.116768 1479.0
367.101507 224.0
369.137025 817.0
372.126253 61.0
379.122547 4355.0
381.099295 123.0
382.107804 285.0
383.121453 154.0
396.119022 181.0
396.142402 276.0
397.141331 20865.0
399.1077 347.0
400.118169 111.0
414.129847 1104.0
414.149777 599.0
415.139186 66.0

