>compound 
>formula C43H32O20
>parentmass 869.1559744227601
>ionization [M + H]+
>instrumentation Unknown (LCMS)
>source file:/Users/fanzhoukong/Documents/GitHub/Libgen/data/EAD_PFP/0_unknown_/spectrum.ms
>quality UNKNOWN

>ms2peaks
50.015945 110.0
51.022056 359.0
52.029017 33.0
53.037238 115.0
55.02531 59.0
55.0551 97.0
55.93447 24.0
56.048091 21.0
60.983085 62.0
62.014806 47.0
63.022527 295.0
64.024248 24.0
65.038618 827.0
66.045829 66.0
67.05356 138.0
68.045481 26.0
68.992602 157.0
71.013764 21.0
73.045675 17.0
74.017586 42.0
75.016287 54.0
76.030218 57.0
77.037199 641.0
78.03523 26.0
78.04475 194.0
79.023131 152.0
79.033581 134.0
80.047921 36.0
81.034332 40.0
81.066082 68.0
82.065833 13.0
83.051174 60.0
86.015207 13.0
88.028378 30.0
89.040459 197.0
90.04624 55.0
91.054871 1619.0
92.055012 172.0
93.033213 26.0
93.061563 53.0
94.068844 37.0
95.068164 35.0
96.081405 24.0
97.026676 68.0
99.010028 19.0
99.994049 17.0
102.043961 70.0
103.051851 110.0
104.057712 35.0
105.062423 107.0
106.063884 51.0
107.011325 46.0
107.045775 33.0
108.078016 20.0
111.043358 123.0
112.99777 37.0
114.048831 19.0
115.055372 392.0
116.056833 60.0
117.061574 151.0
118.065324 84.0
119.064805 20.0
119.081915 43.0
120.081386 54.0
121.027917 27.0
121.101207 15.0
123.045099 43.0
125.02309 147.0
126.047141 58.0
127.053282 90.0
128.062333 205.0
129.066454 74.0
130.066665 63.0
130.993376 49.0
131.067386 36.0
131.075246 39.0
132.019027 38.0
132.066297 17.0
135.045989 32.0
137.031801 23.0
139.039043 636.0
140.051594 27.0
141.070164 92.0
142.073745 42.0
143.077356 22.0
144.076277 36.0
145.072768 19.0
145.968519 38.0
147.07962 38.0
147.96605 24.0
150.038342 24.0
151.043173 296.0
152.062224 201.0
153.019265 948.0
154.066826 43.0
155.055767 34.0
155.067957 40.0
155.086247 23.0
156.080897 46.0
157.066428 27.0
157.093438 19.0
158.094479 36.0
159.08511 61.0
160.089991 33.0
161.055752 27.0
161.081862 15.0
162.045633 32.0
163.038523 625.0
164.059564 31.0
165.071215 167.0
166.045546 19.0
167.067077 51.0
168.075228 47.0
169.066029 32.0
169.076219 48.0
169.091499 22.0
170.09934 25.0
171.09607 18.0
173.057062 14.0
176.055875 14.0
176.061055 43.0
177.069876 20.0
178.077667 81.0
179.041107 43.0
179.081757 21.0
181.048289 83.0
182.08053 24.0
183.060031 23.0
184.048802 14.0
185.058883 15.0
187.056554 23.0
188.060075 16.0
189.066286 107.0
190.064387 18.0
191.000118 75.0
191.006878 36.0
191.071858 35.0
192.079289 28.0
192.980489 51.0
194.0912 25.0
195.075081 25.0
197.058563 56.0
198.067854 16.0
198.105074 45.0
200.053966 26.0
201.057006 41.0
201.075076 17.0
202.080647 37.0
203.069188 35.0
203.136198 30.0
205.05773 19.0
207.033412 170.0
208.032573 15.0
209.028463 35.0
209.075203 38.0
210.106254 15.0
212.046126 22.0
213.055877 117.0
214.056548 16.0
215.076799 40.0
215.091149 28.0
217.06396 47.0
219.096512 12.0
221.058414 18.0
223.026146 22.0
224.045536 31.0
225.043737 23.0
225.056967 53.0
225.073127 21.0
226.083928 20.0
227.065989 16.0
229.052801 63.0
230.069512 12.0
231.066143 28.0
232.102233 16.0
235.041156 42.0
236.043957 20.0
237.050398 57.0
237.065488 20.0
239.033389 14.0
240.09172 15.0
241.050481 134.0
242.059922 61.0
242.984423 39.0
243.076053 24.0
245.041085 17.0
247.104866 14.0
250.062619 12.0
251.07211 23.0
252.044751 38.0
253.051982 145.0
254.055012 30.0
255.069383 42.0
258.055406 25.0
259.058797 54.0
259.068257 25.0
261.054039 24.0
261.092029 14.0
263.07122 14.0
265.046752 178.0
266.057243 17.0
267.013634 13.0
267.064874 16.0
268.037505 15.0
269.048855 37.0
270.049256 55.0
271.054717 89.0
271.064387 83.0
274.06287 22.0
275.072511 19.0
277.074562 302.0
279.065894 27.0
281.044626 79.0
282.048927 54.0
282.065377 17.0
283.055068 43.0
286.06263 22.0
287.065901 33.0
288.065962 17.0
288.079272 15.0
289.066083 45.0
289.084393 26.0
291.053145 57.0
295.061178 26.0
299.052542 16.0
299.066122 31.0
301.056603 25.0
301.075313 33.0
303.048585 25.0
303.063935 32.0
305.081357 41.0
309.03464 29.0
309.07599 13.0
315.058415 16.0
316.072946 38.0
317.080397 25.0
319.056379 22.0
319.070389 21.0
320.06682 21.0
327.058856 17.0
327.078326 19.0
329.076288 14.0
331.055349 20.0
333.052881 85.0
333.063621 674.0
334.051202 14.0
335.052823 36.0
335.090483 22.0
337.071345 65.0
343.06531 35.0
345.042271 15.0
345.078682 119.0
347.052313 31.0
349.073645 28.0
350.081036 11.0
351.084357 28.0
355.06587 25.0
357.078902 39.0
360.067335 20.0
361.069965 62.0
363.062607 52.0
364.054428 44.0
365.064469 112.0
367.077481 34.0
367.088741 54.0
371.054044 22.0
372.051055 27.0
373.072136 77.0
374.081327 14.0
375.084288 23.0
377.063809 24.0
378.07269 18.0
379.082891 214.0
385.072486 32.0
387.047338 14.0
388.057869 17.0
389.06779 111.0
390.069381 220.0
391.081921 462.0
392.087992 16.0
393.097333 14.0
397.083207 13.0
397.106617 6.0
402.060901 19.0
402.070731 64.0
403.081012 162.0
405.058074 16.0
407.073575 48.0
408.084196 43.0
409.090117 196.0
411.061979 44.0
421.086857 56.0
423.077339 22.0
427.094583 14.0
429.076854 19.0
435.39046 6.0
441.081235 63.0
471.090381 15.0
499.099625 15.0
511.105006 30.0
527.08967 17.0
528.10676 170.0
529.111281 285.0
547.126797 31.0
547.213837 6.0
549.101469 38.0
559.088417 113.0
560.096468 69.0
561.103129 295.0
569.088306 6.0
572.090559 16.0
573.100879 166.0
578.102224 63.0
579.110775 80.0
590.110414 21.0
591.103215 27.0
591.105595 157.0
593.088807 143.0
681.111893 11.0
681.124653 29.0
697.114717 17.0
698.131568 161.0
699.102509 30.0
699.131019 302.0
716.129144 15.0
717.141405 29.0
730.119756 29.0
731.131227 722.0
743.094247 37.0
743.123667 471.0
867.114565 22.0
867.126095 37.0
867.146305 21.0
868.136046 117.0
869.146546 20.0
869.158076 170.0

