>compound 
>formula C10H12N2O3
>parentmass 209.09207325433
>ionization [M + H]+
>instrumentation Unknown (LCMS)
>source file:/Users/fanzhoukong/Documents/GitHub/Libgen/data/EAD_PFP/0_unknown_/spectrum.ms
>quality UNKNOWN

>ms2peaks
50.016039 292.0
51.024237 1304.0
53.003763 511.0
55.026039 25.0
55.055109 37.0
56.965605 44.0
57.071385 19.0
62.014696 18.0
63.023954 70.0
64.030382 13.0
64.83085 22.0
65.04083 4382.0
66.034508 21.0
66.045658 49.0
66.050428 58.0
67.053366 81.0
67.058186 84.0
68.015384 20.0
68.994822 47.0
69.071332 13.0
70.02799 160.0
71.015158 1290.0
72.942445 14.0
73.047904 20.0
73.775603 43.0
74.029082 10761.0
74.613491 13.0
74.758261 31.0
74.791301 21.0
75.01767 32.0
75.02445 96.0
75.22484 17.0
75.600849 22.0
76.035869 34.0
76.788567 21.0
77.041147 7537.0
78.035725 32.0
79.019273 31.0
79.050623 21.0
79.056723 59.0
79.965161 16.0
80.052791 18.0
81.076259 36.0
83.077515 11.0
84.960451 15.0
85.41705 6.0
87.036207 40.0
88.041655 1285.0
89.034393 35.0
89.040863 272.0
90.048491 236.0
91.056179 4398.0
92.052567 3941.0
93.060986 446.0
93.568195 12.0
93.626954 17.0
93.758754 77.0
93.773934 141.0
94.072994 10149.0
94.688732 13.0
95.050362 200.0
95.295971 21.0
95.412671 71.0
98.030226 62.0
99.011314 7915.0
101.04131 105.0
102.044238 57.0
103.058096 14.0
104.053974 6121.0
105.039582 172.0
109.100074 14.0
109.557934 82.0
111.002271 29.0
112.548538 17.0
115.041873 24.0
115.055533 51.0
116.045381 53.0
116.051711 216.0
117.061719 4731.0
117.665578 37.0
117.680448 41.0
117.708088 54.0
117.819708 15.0
118.075037 11023.0
118.697506 19.0
118.851246 14.0
119.062795 54.0
119.070285 66.0
119.083105 46.0
119.323755 20.0
119.424364 20.0
119.625714 17.0
119.654644 87.0
119.660004 32.0
119.690004 22.0
120.052523 12290.0
120.591952 78.0
120.643592 31.0
120.761982 37.0
121.052811 27.0
121.156301 13.0
122.062659 888.0
123.300687 16.0
123.677336 13.0
126.047202 13.0
127.0412 25.0
128.052388 2535.0
129.046446 38.0
129.056476 82.0
129.065366 57.0
130.068934 231.0
131.613011 54.0
132.04719 7952.0
132.687359 12.0
133.082588 16.0
136.081622 10530.0
137.07075 18.0
137.10402 21.0
138.496607 21.0
140.176784 29.0
141.077082 21.0
143.064399 22.0
144.042087 43.0
144.049137 127.0
144.062077 37.0
144.073837 55.0
145.059695 113.0
145.070315 344.0
145.574564 75.0
145.585204 61.0
145.598204 70.0
145.614754 46.0
146.065483 16343.0
146.719752 20.0
147.035551 175.0
147.072381 155.0
147.097331 63.0
148.242519 26.0
150.058595 7708.0
151.063493 76.0
152.045151 29.0
152.065691 37.0
153.069989 28.0
154.065437 29.0
154.087317 11.0
156.046443 315.0
157.082191 127.0
158.097969 31.0
161.071704 236.0
162.055372 21.0
163.08958 462.0
164.073108 1018.0
165.073466 46.0
166.066744 14.0
167.068052 20.0
169.067018 22.0
170.067106 41.0
170.219156 6.0
173.05802 39.0
173.48613 31.0
174.059499 7411.0
174.727017 37.0
175.052197 23.0
175.391936 6.0
178.068141 11.0
179.076139 28.0
179.226919 6.0
182.172673 12.0
183.068891 60.0
185.099787 14.0
186.103385 1177.0
188.66465 7.0
189.065849 16.0
190.073368 23.0
190.983386 13.0
191.076816 19.0
191.083586 30.0
192.067964 1564.0
193.014032 27.0
193.136552 20.0
194.11254 9.0
195.093738 7.0
196.076036 19.0
197.103424 25.0
203.083972 17.0
204.14075 17.0
205.158158 14.0
205.622867 6.0
207.034215 38.0
208.007953 6.0
209.036361 11.0
209.102921 15.0

