>compound 
>formula C15H20O5
>parentmass 281.13835474245
>ionization [M + H]+
>instrumentation Unknown (LCMS)
>source file:/Users/fanzhoukong/Documents/GitHub/Libgen/data/EAD_PFP/0_unknown_/spectrum.ms
>quality UNKNOWN

>ms2peaks
50.015398 261.0
51.021509 643.0
52.02987 197.0
53.038102 288.0
54.034413 37.0
55.035624 205.0
55.042894 212.0
57.033077 92.0
59.04806 32.0
60.980932 27.0
62.013414 65.0
63.024225 251.0
64.032236 50.0
65.039548 1868.0
66.041989 61.0
67.0545 757.0
68.997623 70.0
69.024483 100.0
70.063624 18.0
71.046096 57.0
74.0152 48.0
75.024911 64.0
76.030352 75.0
77.039054 1993.0
78.044885 301.0
79.052006 822.0
80.050688 110.0
81.069749 316.0
82.07129 18.0
83.048632 220.0
85.026074 66.0
85.063114 54.0
89.03412 77.0
89.03782 301.0
90.042661 48.0
91.055932 1972.0
92.060784 225.0
92.711425 33.0
93.070205 470.0
94.062316 44.0
95.085488 1503.0
97.064441 61.0
99.045253 130.0
101.058876 38.0
102.043097 70.0
103.050989 128.0
103.053969 554.0
105.071581 1448.0
106.064013 34.0
106.072083 112.0
107.062124 138.0
107.087464 93.0
108.057775 28.0
108.071015 36.0
109.064177 421.0
111.043479 39.0
112.999972 51.0
113.040592 88.0
113.060382 76.0
114.044773 24.0
115.056545 1509.0
116.063286 283.0
117.070177 963.0
118.061189 62.0
118.065449 65.0
119.08417 1193.0
120.077211 26.0
120.089021 48.0
121.065753 215.0
121.071143 282.0
122.079994 39.0
123.045215 154.0
123.057175 169.0
123.070215 138.0
123.078905 71.0
125.060448 626.0
126.046159 56.0
127.051191 64.0
127.055611 367.0
128.063532 1691.0
129.066563 44.0
129.069903 934.0
130.074605 93.0
130.077955 124.0
131.084326 864.0
132.066427 53.0
132.093447 61.0
133.062349 18.0
133.084969 65.0
133.100779 1535.0
134.06657 28.0
134.09493 36.0
135.082531 110.0
136.060033 36.0
137.057144 49.0
137.068594 87.0
138.045205 23.0
139.061097 64.0
140.049388 25.0
141.069109 517.0
142.077351 588.0
143.086842 1302.0
144.058753 17.0
145.101205 1399.0
146.085826 60.0
147.078527 259.0
147.095157 674.0
147.107067 404.0
147.112997 228.0
148.088919 42.0
149.07046 83.0
149.09439 201.0
150.028851 42.0
151.057723 68.0
151.075793 273.0
152.063534 296.0
153.060565 86.0
153.067845 232.0
154.076667 102.0
155.064398 38.0
155.085128 379.0
156.093239 598.0
156.60035 43.0
157.103351 3985.0
158.071172 36.0
158.093342 68.0
158.105662 41.0
159.083973 603.0
159.098814 360.0
160.087615 116.0
161.060836 77.0
161.096886 1436.0
162.065687 22.0
162.100618 36.0
163.076159 264.0
165.073822 315.0
165.090182 50.0
166.073433 71.0
166.077193 143.0
167.072244 60.0
167.083634 140.0
168.081676 33.0
168.090566 62.0
169.061027 32.0
169.078847 94.0
169.101787 55.0
170.072608 104.0
171.12052 3507.0
172.097121 34.0
172.527901 25.0
173.098382 692.0
174.103884 103.0
175.096715 7086.0
176.102756 46.0
176.120956 50.0
177.086928 41.0
177.093428 188.0
178.069909 42.0
179.08577 45.0
179.11199 53.0
181.091883 25.0
181.102423 997.0
182.084584 44.0
182.107054 29.0
183.085306 71.0
183.103866 110.0
183.117126 156.0
184.076797 71.0
184.090087 156.0
185.097628 1247.0
186.08521 18.0
187.075391 149.0
188.082992 27.0
189.081194 55.0
189.110824 712.0
190.082025 36.0
191.073306 21.0
191.105806 293.0
193.122139 175.0
197.087524 19.0
198.102406 18.0
199.114347 3624.0
200.106708 39.0
201.09876 209.0
201.11265 306.0
201.1196 207.0
202.101611 41.0
202.427631 25.0
203.113942 3742.0
204.070034 45.0
204.109214 82.0
205.084465 41.0
207.043348 31.0
207.101148 27.0
209.09795 94.0
212.995886 26.0
215.089788 24.0
216.42224 33.0
217.124641 3524.0
218.124692 70.0
219.137194 58.0
221.118206 397.0
223.093529 17.0
226.101673 23.0
227.110345 967.0
228.113876 42.0
231.10789 17.0
233.124253 12.0
235.125305 100.0
235.135835 239.0
245.119339 2568.0
246.12191 73.0
263.128493 717.0
281.100497 47.0
281.133337 153.0
281.146487 204.0
281.153047 89.0

