>compound 
>formula C10H13N5O5
>parentmass 284.099060058594
>ionization [M + H]+
>instrumentation Unknown (LCMS)
>source file:/Users/fanzhoukong/Documents/GitHub/Libgen/data/NIST_MONA/0_unknown_/spectrum.ms
>quality UNKNOWN

>ms2peaks
28.0148 1.33
31.0176 0.53
43.0167 1.63
43.0278 6.35
45.032 1.72
53.0132 1.53
55.0156 0.72
55.028 8.3
55.9338 0.29
57.0318 3.46
61.028 1.07
67.0302 0.72
68.0235 0.91
69.0318 0.72
71.0128 1.03
72.0143 0.7
73.0294 0.3
80.0234 3.65
82.0389 1.93
85.0271 1.6
93.0051 1.76
107.0363 3.3
109.048 2.07
110.035 33.03
110.0944 0.41
110.2384 0.28
110.2725 0.28
111.4901 0.29
134.0446 2.37
135.0298 100.0
135.0938 2.01
135.1602 0.36
135.3164 0.3
135.6248 0.42
135.7611 0.31
136.0306 1.17
137.1873 0.28
152.0569 38.42
152.127 0.74
152.3573 0.38
153.1656 0.37
182.9197 0.58

