>compound 
>formula C27H24O18
>parentmass 654.13008492578
>ionization [M + H3N + H]+
>instrumentation Unknown (LCMS)
>source file:/Users/fanzhoukong/Documents/GitHub/Libgen/data/EAD_PFP/0_unknown_/spectrum.ms
>quality UNKNOWN

>ms2peaks
50.016171 292.0
51.025091 777.0
52.028542 88.0
53.038903 135.0
54.042413 56.0
55.054604 642.0
56.046855 34.0
56.054185 30.0
57.069415 78.0
60.992488 20.0
62.015039 36.0
64.02918 41.0
65.038841 930.0
66.039681 57.0
67.055392 246.0
68.023893 21.0
68.045703 40.0
68.996083 76.0
70.072724 13.0
72.937936 14.0
73.048406 16.0
74.016127 23.0
75.022447 55.0
76.028728 83.0
77.039999 811.0
78.047559 141.0
79.01987 1184.0
80.049021 55.0
81.068071 171.0
82.067822 26.0
83.068353 57.0
85.052354 16.0
87.026865 23.0
89.035127 90.0
91.050408 42.0
91.056958 1257.0
92.057109 148.0
93.065559 163.0
94.05195 49.0
95.084621 48.0
97.028822 227.0
99.993284 18.0
100.114784 50.0
102.047145 104.0
103.055056 255.0
104.061917 51.0
105.067647 196.0
106.066118 46.0
107.013559 264.0
108.080269 31.0
109.02846 69.0
112.997973 31.0
113.041713 61.0
115.050324 342.0
115.053474 971.0
116.060205 143.0
117.066025 145.0
119.056467 24.0
120.080518 51.0
121.100338 55.0
122.111479 16.0
123.007279 78.0
124.01542 26.0
125.024391 414.0
126.045142 78.0
126.906672 20.0
127.053492 157.0
128.063623 611.0
129.068874 329.0
130.065754 157.0
131.061985 34.0
131.073195 105.0
132.084516 56.0
133.081656 48.0
133.103136 44.0
134.095017 33.0
134.992698 22.0
135.107688 31.0
137.020529 13.0
139.05079 35.0
139.05539 109.0
140.056431 38.0
141.066872 264.0
141.925682 18.0
142.071602 72.0
143.082233 95.0
144.075294 60.0
145.101284 74.0
146.095375 30.0
147.105956 25.0
147.966246 21.0
148.125976 7.0
150.042138 50.0
151.048188 29.0
152.066039 201.0
153.02188 2619.0
154.06337 46.0
155.086461 33.0
156.084752 68.0
157.091172 47.0
158.094673 78.0
159.113724 28.0
163.053746 42.0
163.150076 28.0
164.062277 61.0
165.072658 357.0
166.065938 51.0
167.082469 152.0
168.08177 77.0
169.07131 55.0
169.0968 93.0
170.095701 48.0
173.101073 23.0
173.125563 43.0
174.127224 23.0
175.050144 47.0
175.151264 35.0
176.056065 56.0
177.059646 50.0
177.072696 31.0
178.076536 316.0
179.085867 159.0
180.083588 61.0
181.011568 59.0
181.094618 45.0
182.071479 64.0
182.191779 152.0
183.03504 63.0
184.07689 23.0
185.056421 15.0
187.042012 27.0
187.055392 30.0
188.142223 28.0
189.069174 144.0
190.072674 50.0
191.004355 54.0
191.020605 78.0
191.050375 114.0
191.084235 48.0
192.000756 14.0
192.091696 52.0
192.980696 195.0
194.106397 50.0
195.101268 33.0
196.113769 23.0
197.009249 47.0
197.128889 19.0
198.12871 15.0
199.149021 24.0
200.059711 26.0
201.066912 29.0
201.136372 20.0
202.075263 157.0
203.080543 61.0
203.141973 35.0
204.082734 71.0
204.147114 13.0
205.157525 125.0
206.093085 33.0
206.154955 24.0
207.033586 260.0
208.031337 44.0
209.027247 68.0
211.027579 16.0
211.154259 20.0
213.06892 18.0
215.082731 66.0
217.046823 21.0
217.071343 44.0
218.087183 43.0
219.098144 33.0
219.115534 23.0
220.114335 25.0
221.128505 13.0
223.121427 14.0
225.042448 29.0
226.073799 35.0
228.1776 13.0
230.090501 20.0
231.103552 30.0
233.049583 134.0
234.112584 27.0
235.126935 19.0
237.043036 81.0
238.065227 8.0
239.085067 40.0
240.096468 11.0
241.198229 29.0
243.02277 32.0
245.119481 13.0
248.985784 17.0
250.966735 24.0
250.996235 38.0
252.989847 15.0
258.22242 18.0
260.035901 31.0
261.038372 406.0
265.013415 19.0
265.026195 71.0
266.017475 19.0
267.002606 51.0
268.000777 17.0
279.056234 447.0
281.053005 130.0
282.049096 56.0
283.046997 20.0
285.009978 22.0
297.065496 66.0
299.062908 32.0
299.272988 19.0
305.025062 98.0
310.980426 26.0
314.181078 38.0
315.072468 14.0
323.039234 22.0
341.003726 17.0
341.016396 18.0
355.653276 7.0
431.008946 22.0
431.065886 35.0
448.054488 76.0
448.066938 98.0
449.066998 876.0
449.073198 2657.0
466.06485 11.0
467.08264 321.0
617.037541 8.0
617.076481 39.0
618.086802 135.0
619.093022 2458.0

