>compound 
>formula C20H24O6
>parentmass 383.1465094909401
>ionization [M + Na]+
>instrumentation Unknown (LCMS)
>source file:/Users/fanzhoukong/Documents/GitHub/Libgen/data/EAD_PFP/0_unknown_/spectrum.ms
>quality UNKNOWN

>ms2peaks
50.012206 53.0
51.023874 306.0
52.031532 139.0
53.03906 71.0
54.036809 18.0
55.054747 165.0
56.050655 52.0
56.964503 200.0
58.066251 18.0
59.049009 16.0
60.985686 53.0
62.018204 43.0
63.023602 244.0
64.03159 31.0
65.040479 1200.0
66.038927 66.0
67.053015 154.0
68.034423 38.0
68.983081 51.0
68.995281 141.0
71.050308 458.0
73.027454 20.0
74.015252 34.0
75.01477 42.0
76.031249 77.0
77.039947 800.0
78.045765 156.0
79.054633 294.0
80.052441 75.0
81.052989 85.0
82.980776 36.0
83.052176 63.0
85.030552 441.0
86.02529 18.0
87.045009 36.0
89.038675 259.0
90.048153 46.0
91.056781 1548.0
92.057869 195.0
93.061598 55.0
93.070098 33.0
94.052706 38.0
95.051934 96.0
95.089194 30.0
97.02764 81.0
97.969769 115.0
98.975897 312.0
101.043943 45.0
102.046881 77.0
103.052799 121.0
104.053648 55.0
105.055326 39.0
105.071386 195.0
106.066834 57.0
107.067992 42.0
108.995419 71.0
110.976155 417.0
112.991381 85.0
114.039279 10.0
115.057328 332.0
116.057736 68.0
117.064594 147.0
118.058762 33.0
118.065152 43.0
119.0518 23.0
119.08066 45.0
120.080128 23.0
120.995387 22.0
121.069757 29.0
122.037465 21.0
122.977523 19.0
123.045973 58.0
123.985541 27.0
124.052091 19.0
124.99219 178.0
126.048008 43.0
126.971346 27.0
127.044206 30.0
127.054146 102.0
128.065394 184.0
129.055062 86.0
129.068412 98.0
130.06528 71.0
131.022269 67.0
131.057029 31.0
131.078328 36.0
131.085058 31.0
132.049147 25.0
133.066485 57.0
134.971701 27.0
136.081339 32.0
136.989048 41.0
137.060138 27.0
138.033266 14.0
139.010974 25.0
139.058334 32.0
140.047772 55.0
140.98257 24.0
140.99071 24.0
141.06633 70.0
142.067549 17.0
143.002007 30.0
144.077085 30.0
145.067683 40.0
145.964591 27.0
147.076849 49.0
147.968038 30.0
147.981138 97.0
148.991026 54.0
149.133346 19.0
150.040324 24.0
151.043952 43.0
151.053582 54.0
152.05334 65.0
152.063 176.0
152.987309 54.0
153.064869 71.0
154.055437 26.0
154.067607 50.0
155.063845 35.0
155.074815 53.0
155.085805 68.0
156.057173 25.0
157.037731 36.0
157.067181 36.0
158.092769 32.0
159.062408 53.0
159.110578 30.0
160.051086 19.0
160.990624 65.0
161.060254 65.0
162.971751 59.0
162.99675 41.0
163.05179 37.0
163.07557 29.0
164.059059 23.0
165.068167 237.0
165.992015 43.0
166.066485 21.0
167.072873 508.0
168.064521 46.0
168.077231 86.0
169.065489 26.0
169.075659 25.0
170.077078 30.0
170.091138 28.0
170.998156 104.0
172.007804 18.0
172.055334 37.0
173.057782 107.0
173.100312 17.0
174.0153 30.0
174.04375 24.0
175.009189 31.0
175.045469 35.0
175.068819 22.0
175.150468 17.0
175.983787 46.0
176.055277 29.0
176.065667 54.0
177.024955 53.0
177.054945 38.0
177.993403 116.0
178.053523 59.0
178.086203 40.0
179.070641 30.0
179.082431 67.0
181.055578 137.0
181.091158 19.0
182.997104 78.0
183.068664 73.0
184.041512 73.0
184.99028 36.0
185.01026 190.0
185.996269 90.0
187.030437 24.0
187.078667 73.0
188.076875 16.0
189.069663 137.0
190.062351 47.0
191.00346 220.0
191.076579 36.0
191.983578 26.0
192.006648 28.0
192.074518 49.0
192.983886 38.0
193.088676 67.0
194.082304 23.0
194.992282 28.0
195.090782 25.0
196.04838 27.0
197.011079 14.0
197.092208 15.0
197.995427 30.0
199.005725 56.0
199.072055 27.0
200.008883 20.0
201.007621 785.0
202.00051 23.0
202.02 28.0
202.077079 98.0
203.009808 31.0
203.058648 31.0
203.072608 56.0
203.082378 82.0
204.084566 28.0
205.086404 214.0
205.989462 86.0
206.018982 51.0
207.0312 60.0
207.05939 59.0
208.033169 29.0
208.062849 31.0
208.086869 25.0
209.023407 28.0
209.084307 40.0
210.084135 20.0
211.045073 36.0
211.074963 35.0
213.03072 28.0
213.166569 18.0
214.058548 28.0
215.050086 28.0
216.009334 35.0
216.079894 28.0
217.087632 140.0
218.05865 34.0
218.07312 68.0
219.008629 39.0
219.034739 46.0
219.063729 109.0
219.094168 43.0
220.092937 49.0
221.048785 41.0
221.083745 36.0
222.085563 18.0
223.028171 16.0
223.086691 36.0
223.9933 15.0
224.084209 16.0
225.045778 19.0
226.065336 20.0
227.019294 39.0
227.042914 25.0
228.010782 44.0
229.06965 112.0
229.568109 21.0
230.025469 20.0
231.081557 55.0
231.100927 43.0
232.004275 27.0
232.108735 25.0
233.048443 16.0
233.078353 27.0
233.099293 26.0
234.027511 14.0
234.066461 29.0
235.089729 49.0
235.109259 29.0
237.097676 34.0
238.064044 28.0
239.076312 19.0
241.026639 14.0
241.084439 15.0
242.995605 37.0
243.012405 35.0
243.023095 21.0
245.086041 34.0
246.01783 18.0
247.040688 44.0
247.085328 98.0
247.100748 45.0
248.074906 24.0
248.082626 42.0
250.066192 24.0
251.06482 27.0
251.11139 19.0
253.030647 17.0
254.061715 18.0
255.066713 18.0
256.004731 30.0
256.106631 18.0
257.01514 23.0
257.04654 30.0
257.070099 37.0
257.151769 21.0
258.016508 19.0
259.027706 31.0
259.086056 32.0
260.037744 30.0
260.074064 40.0
261.041802 35.0
261.075032 55.0
262.0621 31.0
263.108208 63.0
264.073627 26.0
265.026445 33.0
265.048755 18.0
265.093435 31.0
267.023661 21.0
267.119731 18.0
269.034828 32.0
269.150528 14.0
271.032534 15.0
271.072854 21.0
273.03119 78.0
273.08786 31.0
274.011389 20.0
275.061557 267.0
276.069765 49.0
277.040733 17.0
277.088013 61.0
278.091791 23.0
279.089169 22.0
279.100639 53.0
280.008048 17.0
280.075248 28.0
281.053216 130.0
282.054244 19.0
283.045552 14.0
285.021769 18.0
286.082867 22.0
287.049665 66.0
287.165845 14.0
289.038121 32.0
290.05161 19.0
290.078309 15.0
291.073548 27.0
291.103638 161.0
293.077544 34.0
293.082604 86.0
294.089682 27.0
295.08508 30.0
295.15237 22.0
297.116327 41.0
301.04161 17.0
301.065409 32.0
301.097699 16.0
303.055706 21.0
304.074684 24.0
305.079932 41.0
305.117592 62.0
305.177492 34.0
306.06116 19.0
307.081729 15.0
307.098909 49.0
308.103977 72.0
309.109005 23.0
310.089783 76.0
311.046201 26.0
311.129111 25.0
314.045766 18.0
315.088244 56.0
315.182144 16.0
317.02833 13.0
318.087969 33.0
319.093397 94.0
320.086345 19.0
321.086123 56.0
321.151073 30.0
322.106821 30.0
323.123839 60.0
325.100856 18.0
329.056969 29.0
330.104457 23.0
330.109797 77.0
331.112625 28.0
333.060261 30.0
334.092609 18.0
335.074568 18.0
335.094278 26.0
336.102856 70.0
337.094954 37.0
337.109324 116.0
339.09073 13.0
339.1196 34.0
343.121763 18.0
347.070726 44.0
349.059192 18.0
350.1252 16.0
351.106549 20.0
351.124918 410.0
352.135237 91.0
353.100995 72.0
355.078921 27.0
357.060548 20.0
359.062534 14.0
364.127465 18.0
365.150713 47.0
365.193773 31.0
366.044171 13.0
367.090739 54.0
367.115129 54.0
368.110608 93.0
368.120008 98.0
370.071664 9.0
371.152292 25.0
372.05115 22.0
374.058687 15.0
377.090541 17.0
379.058188 11.0
380.058246 19.0
381.071094 25.0
382.068072 36.0
382.144642 14.0
383.15071 742.0

