>compound 
>formula C10H13N5O5
>parentmass 284.099060058594
>ionization [M + H]+
>instrumentation Unknown (LCMS)
>source file:/Users/fanzhoukong/Documents/GitHub/Libgen/data/NIST_MONA/0_unknown_/spectrum.ms
>quality UNKNOWN

>ms2peaks
43.0159 0.23
43.0267 0.26
55.0173 0.25
57.0325 0.43
69.0329 0.29
71.0118 0.52
75.0422 0.23
85.0255 0.22
97.0292 0.15
110.0343 1.61
115.0404 0.34
133.0502 0.43
134.0483 0.16
135.0298 5.65
152.0041 0.22
152.0559 100.0
152.376 0.19
152.3967 0.14
152.4171 0.2
152.4547 0.19
152.5671 0.12
152.6069 0.29
152.6681 0.24
152.7 0.19
152.7113 0.12
152.8475 0.13
152.9411 0.15
153.0593 0.6
174.8966 0.18
189.9204 0.31
217.8544 0.15
284.1023 1.01
306.1516 0.13

