>compound 
>formula C70H110O37
>parentmass 1565.6618154693897
>ionization [M + Na]+
>instrumentation Unknown (LCMS)
>source file:/Users/fanzhoukong/Documents/GitHub/Libgen/data/EAD_PFP/0_unknown_/spectrum.ms
>quality UNKNOWN

>ms2peaks
50.017443 88.0
51.02357 351.0
52.027697 68.0
53.039465 95.0
55.055159 222.0
56.051067 50.0
57.069964 28.0
60.984603 45.0
62.013241 52.0
63.020938 160.0
63.024818 199.0
64.027345 42.0
65.039352 983.0
66.04656 116.0
67.057487 169.0
68.051854 49.0
68.994132 147.0
70.067469 31.0
74.014058 40.0
75.024606 35.0
76.032603 167.0
77.04045 1174.0
78.039347 139.0
79.054275 262.0
80.048572 135.0
81.068499 91.0
82.066477 10.0
83.929012 7.0
87.022703 12.0
89.037368 170.0
90.042195 43.0
91.056403 1347.0
93.065937 102.0
94.064674 114.0
95.059192 75.0
96.081019 23.0
97.014697 31.0
97.949014 26.0
101.041566 27.0
102.045493 111.0
104.054238 86.0
105.070975 120.0
106.064412 74.0
109.105484 30.0
110.997409 40.0
113.001374 41.0
114.048271 7.0
115.056898 455.0
116.059415 70.0
117.067343 166.0
118.06579 46.0
119.082367 40.0
120.085055 42.0
126.046459 36.0
126.904676 31.0
127.041556 27.0
127.053696 175.0
128.060513 283.0
129.0713 68.0
130.068178 124.0
131.065545 91.0
132.074582 39.0
133.02083 26.0
134.096337 13.0
135.114674 10.0
138.044316 21.0
139.054414 80.0
140.053111 24.0
141.068188 163.0
142.072915 31.0
142.082245 34.0
143.076523 84.0
143.082373 57.0
144.07896 48.0
145.071907 19.0
145.087247 68.0
145.968855 24.0
146.096685 11.0
147.112002 18.0
150.042254 37.0
151.055511 27.0
152.064939 99.0
153.070436 93.0
155.081651 29.0
156.078698 59.0
157.096155 23.0
158.095972 21.0
162.048372 20.0
163.057539 24.0
165.070184 123.0
166.067231 21.0
166.074801 55.0
167.071088 48.0
167.083758 66.0
168.079246 57.0
169.085333 47.0
170.09571 44.0
172.111355 39.0
173.099772 30.0
175.125317 18.0
176.066444 47.0
177.066151 29.0
178.076519 83.0
179.084526 47.0
180.075663 56.0
180.094063 22.0
181.086661 25.0
182.099168 60.0
183.090655 20.0
184.112733 22.0
185.12165 15.0
187.059345 22.0
187.147784 8.0
189.069089 105.0
190.069887 29.0
190.998854 52.0
192.002011 16.0
192.083471 49.0
192.988759 63.0
194.096746 49.0
195.092953 11.0
195.108003 9.0
197.106778 16.0
198.114795 17.0
200.06233 21.0
202.068154 19.0
202.079294 96.0
203.084592 32.0
203.143231 52.0
204.074179 23.0
205.085816 35.0
207.029201 132.0
208.031168 43.0
209.029896 30.0
210.9961 16.0
212.131717 16.0
213.068725 15.0
214.063702 8.0
215.082529 38.0
216.082177 31.0
217.091354 20.0
218.099991 13.0
219.106629 20.0
221.080223 16.0
221.109353 23.0
225.036323 16.0
228.085604 34.0
230.093199 17.0
230.191299 8.0
231.109236 29.0
232.114064 17.0
233.115121 12.0
234.101808 11.0
237.0895 18.0
241.103579 23.0
242.982734 16.0
244.115571 22.0
248.988498 16.0
249.991186 18.0
251.008283 11.0
252.09277 19.0
253.142197 8.0
259.150031 14.0
260.155558 8.0
265.020965 31.0
267.00057 35.0
270.102092 8.0
270.221231 17.0
275.278588 8.0
281.052502 114.0
282.056829 25.0
285.095461 23.0
299.079254 12.0
309.220186 8.0
324.265126 11.0
334.11507 8.0
344.205103 15.0
346.249137 8.0
447.151666 8.0
463.113723 8.0
465.129188 28.0
479.13696 8.0
481.165465 8.0
493.113213 24.0
493.126273 8.0
608.371603 8.0
609.198261 69.0
627.212182 8.0
655.194047 8.0
719.415245 8.0
721.439899 14.0
869.458302 8.0
874.401828 20.0
916.434735 8.0
933.43732 18.0
933.44635 72.0
934.467217 27.0
945.513817 8.0
977.428352 10.0
979.444636 14.0
1046.025147 9.0
1048.513791 39.0
1049.522698 182.0
1077.510903 12.0
1077.559123 9.0
1090.492678 9.0
1095.551504 10.0
1123.538489 18.0
1153.524859 23.0
1236.555526 24.0
1237.575413 33.0
1340.580506 9.0
1357.60329 9.0
1384.590528 9.0
1385.614935 27.0
1387.63226 19.0

