>compound 
>formula C29H52O
>parentmass 439.39103729553005
>ionization [M + Na]+
>instrumentation Unknown (LCMS)
>source file:/Users/fanzhoukong/Documents/GitHub/Libgen/data/EAD_PFP/0_unknown_/spectrum.ms
>quality UNKNOWN

>ms2peaks
113.007152 39.0
115.051175 27.0
115.055385 164.0
117.071117 41.0
119.0723 19.0
119.08512 57.0
121.091513 41.0
122.097194 79.0
123.117915 61.0
127.049961 92.0
128.061202 121.0
129.064213 69.0
130.066655 51.0
131.085316 46.0
133.100649 35.0
149.13371 30.0
151.051563 67.0
152.056134 12.0
152.063384 144.0
153.085865 164.0
154.066777 73.0
155.078888 50.0
156.079609 103.0
157.087261 27.0
157.098301 31.0
158.098122 70.0
159.097404 161.0
159.115944 33.0
161.095486 53.0
161.130306 83.0
162.995959 23.0
163.149829 114.0
164.05824 39.0
165.068621 164.0
166.075783 87.0
167.083474 75.0
168.077686 56.0
169.059597 41.0
169.082507 47.0
171.0973 122.0
172.078961 39.0
173.125292 62.0
174.101124 32.0
175.128955 95.0
175.147095 55.0
177.086748 53.0
177.163688 100.0
178.081499 67.0
179.04758 43.0
181.077203 58.0
183.083796 35.0
184.079277 36.0
185.092118 34.0
187.144901 36.0
189.067544 27.0
189.164544 29.0
190.165575 25.0
191.182826 65.0
192.088688 59.0
192.985829 28.0
193.083839 98.0
194.10884 40.0
197.046084 19.0
197.079074 38.0
199.072697 39.0
201.08745 70.0
201.16526 52.0
202.080531 29.0
203.179372 57.0
205.108115 46.0
206.081526 25.0
207.030458 58.0
209.01276 35.0
209.06515 44.0
210.103292 23.0
211.071383 20.0
211.124043 56.0
212.078804 20.0
212.145844 22.0
213.167276 29.0
215.070918 23.0
215.178669 58.0
217.199501 47.0
219.065914 48.0
220.173595 134.0
221.134017 24.0
225.125892 19.0
226.085243 24.0
227.129315 40.0
229.160887 41.0
231.09279 38.0
231.21194 22.0
233.110563 27.0
237.112078 37.0
239.125601 24.0
240.090042 24.0
241.079203 27.0
242.987286 28.0
243.208766 38.0
245.229559 60.0
247.135491 13.0
247.197091 20.0
248.994684 22.0
251.123147 27.0
255.108292 38.0
257.224975 25.0
259.104317 38.0
261.18363 15.0
265.021005 54.0
266.023487 17.0
268.155989 12.0
271.238394 23.0
275.145409 40.0
277.214602 54.0
281.050937 52.0
282.117808 12.0
293.140703 38.0
295.224146 28.0
297.188348 28.0
299.272551 39.0
306.17713 33.0
307.177282 60.0
307.208202 12.0
309.177314 12.0
311.151017 36.0
315.251152 12.0
319.225828 20.0
321.16458 34.0
323.151463 30.0
325.167426 44.0
329.211041 24.0
335.179829 23.0
337.178942 22.0
341.166067 39.0
347.221715 22.0
351.188641 84.0
351.306161 42.0
353.321423 39.0
361.231554 25.0
365.191399 36.0
366.184261 35.0
367.262942 40.0
375.260353 26.0
377.268905 30.0
377.284125 81.0
385.260486 42.0
386.239827 29.0
398.041843 12.0
403.20845 36.0
403.24385 108.0
408.091667 14.0
411.282011 23.0
421.255284 89.0
421.267344 100.0
422.261206 12.0
436.918215 12.0
438.274847 29.0
439.282378 1037.0

