>compound 
>formula C15H22O
>parentmass 219.17434632863
>ionization [M + H]+
>instrumentation Unknown (LCMS)
>source file:/Users/fanzhoukong/Documents/GitHub/Libgen/data/EAD_PFP/0_unknown_/spectrum.ms
>quality UNKNOWN

>ms2peaks
50.017554 307.0
51.02506 862.0
53.036692 442.0
53.041682 1092.0
54.866405 22.0
54.879465 31.0
55.061045 6611.0
55.498043 29.0
55.603913 16.0
55.947031 17.0
56.528119 16.0
57.070007 687.0
57.072227 5007.0
57.563195 15.0
59.050979 938.0
61.065732 17.0
63.023274 12.0
65.040927 1272.0
66.045743 61.0
67.057469 7111.0
67.877386 18.0
68.059105 27.0
68.814382 20.0
69.057571 10364.0
69.46194 29.0
69.584459 12.0
70.704355 11.0
71.049914 522.0
71.564442 23.0
73.065556 50.0
75.016039 10.0
76.796362 18.0
77.041221 3671.0
78.046177 46.0
78.731365 30.0
79.058523 5693.0
79.626571 22.0
79.93282 23.0
80.06337 121.0
81.071906 5458.0
82.071682 32.0
82.784069 16.0
83.053468 2359.0
83.060608 5127.0
83.573856 30.0
84.079714 30.0
85.066171 2874.0
87.079213 16.0
89.047375 29.0
90.052252 35.0
91.042198 15.0
91.057158 5291.0
92.768291 58.0
92.780561 74.0
93.07614 12542.0
94.047376 395.0
95.083823 1150.0
95.088593 6379.0
95.571611 67.0
97.068525 1826.0
97.081075 2896.0
99.083477 770.0
100.451372 14.0
103.056122 157.0
104.104958 9.0
105.074735 7873.0
106.074231 50.0
107.088597 4753.0
108.057883 1222.0
109.068369 46.0
109.086779 9514.0
109.673837 26.0
111.084852 5545.0
112.409317 50.0
113.098974 32.0
114.038541 34.0
114.688048 15.0
115.056577 4369.0
115.701604 21.0
116.066473 884.0
117.073369 6521.0
117.822886 28.0
118.075025 24.0
118.079285 111.0
118.697503 43.0
119.089511 12492.0
119.608559 64.0
120.004208 41.0
120.061098 28.0
120.070758 50.0
120.083638 76.0
120.093298 142.0
120.676935 51.0
120.724285 25.0
121.070044 272.0
121.088364 15112.0
121.683051 19.0
122.07563 361.0
122.10594 18.0
122.491608 25.0
122.670568 50.0
122.681418 43.0
122.694438 76.0
123.089726 17343.0
123.614144 37.0
123.756864 37.0
123.898573 30.0
123.942193 49.0
124.030543 12.0
124.088372 33.0
124.411591 25.0
124.526351 31.0
125.019849 72.0
125.097629 265.0
125.106398 113.0
125.290548 27.0
125.419967 25.0
126.051575 87.0
126.617533 16.0
126.865672 20.0
127.054421 414.0
127.890568 54.0
128.064557 1009.0
128.860644 78.0
129.072013 1042.0
129.781921 13.0
130.07895 275.0
131.088686 1561.0
132.080922 59.0
133.102898 1565.0
134.609142 53.0
135.083511 133.0
135.10058 10557.0
135.25322 26.0
136.090727 52.0
136.127297 26.0
137.102833 501.0
139.111725 49.0
141.072378 178.0
142.084124 332.0
143.09012 793.0
144.085536 80.0
144.096106 1006.0
145.104462 5098.0
146.070159 151.0
146.077259 335.0
146.090289 236.0
146.106879 113.0
146.113969 58.0
147.117465 4819.0
148.092201 353.0
148.107701 86.0
148.51093 41.0
148.614819 31.0
149.100057 4171.0
150.104123 253.0
151.114 971.0
151.655158 46.0
152.064406 87.0
152.347225 28.0
153.077182 117.0
154.071448 29.0
155.088435 145.0
156.094081 305.0
156.582799 18.0
157.104207 3209.0
158.111433 1071.0
158.124983 54.0
159.126829 7050.0
160.092156 143.0
160.108275 232.0
160.120665 63.0
160.592064 27.0
160.726153 25.0
161.105172 93.0
161.118852 4470.0
162.106418 389.0
162.533246 18.0
163.117014 6748.0
163.746942 37.0
164.05798 31.0
164.12322 159.0
164.675878 22.0
165.073367 42.0
165.097277 39.0
165.128746 30.0
165.719664 15.0
166.80597 67.0
167.440438 26.0
168.093895 20.0
168.986672 30.0
169.103861 35.0
169.50281 41.0
170.106597 43.0
171.120004 744.0
172.12615 430.0
173.131366 1626.0
174.107212 36.0
175.145418 1282.0
175.148008 2080.0
176.120405 1574.0
177.131991 976.0
177.141121 1333.0
177.156761 243.0
178.079787 28.0
178.137317 20.0
180.07894 14.0
181.101826 14.0
182.135532 11.0
185.100991 41.0
185.13299 77.0
186.140687 306.0
187.108243 31.0
188.119959 36.0
189.123635 38.0
189.126315 185.0
189.141145 42.0
190.136721 118.0
190.55434 15.0
191.185027 1807.0
192.993491 20.0
193.971847 11.0
195.361872 26.0
196.568647 8.0
199.150927 70.0
201.166049 3795.0
203.117342 27.0
203.143862 435.0
204.094398 18.0
204.153188 158.0
205.101885 12.0
207.032657 15.0
207.042507 8.0
209.00079 8.0
217.161259 54.0
218.181625 21.0
219.178301 4693.0

