>compound 
>formula C27H42O14
>parentmass 608.29127702764
>ionization [M + H3N + H]+
>instrumentation Unknown (LCMS)
>source file:/Users/fanzhoukong/Documents/GitHub/Libgen/data/EAD_PFP/0_unknown_/spectrum.ms
>quality UNKNOWN

>ms2peaks
50.016565 165.0
51.024072 370.0
52.03103 115.0
53.037847 148.0
54.034135 21.0
55.054233 217.0
57.027578 23.0
57.071978 26.0
59.013093 24.0
60.984388 52.0
62.015336 57.0
63.023823 240.0
64.020851 14.0
65.039919 1080.0
66.047126 135.0
67.055664 758.0
68.048391 21.0
68.996339 208.0
74.013817 43.0
75.023515 76.0
76.028942 58.0
77.04021 1879.0
78.041707 153.0
79.056635 732.0
80.050963 72.0
80.056213 64.0
81.07178 217.0
82.052028 23.0
83.046205 25.0
83.086375 25.0
86.015578 25.0
87.027016 15.0
89.039881 168.0
90.049379 44.0
91.058006 1256.0
92.059104 215.0
93.067561 173.0
94.046359 66.0
95.052237 250.0
97.029872 15.0
99.994335 29.0
102.0472 69.0
103.056097 186.0
104.054965 61.0
105.068692 454.0
106.06212 50.0
106.0712 67.0
107.084538 172.0
108.078255 37.0
109.064283 88.0
111.000228 32.0
112.003606 25.0
113.003173 60.0
115.054509 439.0
116.051746 37.0
117.061754 87.0
117.071294 157.0
118.059111 40.0
118.064441 44.0
119.050019 115.0
119.062839 56.0
119.087429 30.0
120.076186 40.0
120.084776 47.0
121.065794 34.0
121.104604 213.0
122.033492 26.0
122.071372 64.0
123.045249 143.0
123.121329 56.0
126.047272 45.0
126.90328 20.0
127.05231 81.0
128.056897 51.0
128.063557 200.0
129.066555 109.0
130.061202 37.0
130.065652 87.0
131.08769 34.0
132.020258 33.0
132.061908 44.0
133.100755 420.0
134.094893 15.0
135.044941 43.0
136.053158 20.0
137.058256 128.0
138.070483 23.0
139.056421 45.0
140.059768 25.0
141.070226 105.0
142.066774 31.0
143.077391 35.0
144.080999 38.0
145.076326 53.0
145.089316 38.0
145.965004 18.0
147.044012 89.0
148.048289 17.0
148.112669 28.0
149.060807 35.0
149.085917 43.0
150.046745 28.0
151.038352 442.0
151.080502 327.0
151.111812 434.0
152.06221 170.0
153.058027 55.0
153.066497 89.0
154.071675 72.0
155.061822 24.0
155.083802 27.0
156.05761 13.0
156.08209 28.0
156.09065 26.0
157.088498 36.0
158.095675 42.0
161.099208 22.0
162.070526 16.0
162.997203 32.0
163.040983 58.0
164.048211 68.0
165.059798 2178.0
166.074506 38.0
167.069514 36.0
167.085984 65.0
167.091044 100.0
168.080231 69.0
169.118159 106.0
169.123259 412.0
170.091586 44.0
171.088294 16.0
171.110084 19.0
173.118809 17.0
175.042044 45.0
176.063542 32.0
177.05543 35.0
178.064457 24.0
178.077537 72.0
179.063245 51.0
179.069805 34.0
180.071412 24.0
180.081942 163.0
181.05473 35.0
181.08241 38.0
182.102858 28.0
183.066485 40.0
183.079745 43.0
184.075213 22.0
185.12537 29.0
187.131425 156.0
188.102903 15.0
189.053981 26.0
189.071491 49.0
190.073648 16.0
190.096588 21.0
191.001256 33.0
192.005794 25.0
192.081814 28.0
193.049691 408.0
194.086899 21.0
195.065286 27.0
195.087186 28.0
196.074944 60.0
197.102342 22.0
200.053734 15.0
202.06647 16.0
202.07761 28.0
203.063357 13.0
203.144317 22.0
204.086485 20.0
205.141642 92.0
206.06028 45.0
206.07293 26.0
206.09826 22.0
207.045818 77.0
207.065558 309.0
208.069025 17.0
209.103243 18.0
211.061268 91.0
212.077226 16.0
215.083668 12.0
216.091956 28.0
219.088929 21.0
223.059449 31.0
224.062787 24.0
224.073047 35.0
225.075714 2359.0
226.073272 23.0
226.110082 16.0
227.08334 20.0
228.091237 10.0
229.105805 27.0
235.0903 21.0
242.085404 19.0
243.086321 163.0
245.115796 17.0
252.176489 15.0
261.983456 22.0
265.020688 48.0
267.000294 11.0
281.04237 36.0
281.05223 101.0
282.051618 51.0
283.041275 39.0
283.107185 20.0
286.121648 21.0
301.144312 23.0
319.151868 28.0
325.142214 13.0
331.15618 50.0
343.153371 51.0
345.170636 25.0
354.017265 6.0
361.150948 47.0
361.165868 421.0
375.181984 116.0
379.175374 1233.0
385.16184 6.0
393.191491 1311.0
397.189521 135.0
411.203897 2228.0
459.278452 44.0
537.193945 6.0
555.246032 6.0
573.209429 22.0
579.875493 6.0
608.250904 30.0

