>compound 
>formula C10H12O
>parentmass 166.12263600633
>ionization [M + H3N + H]+
>instrumentation Unknown (LCMS)
>source file:/Users/fanzhoukong/Documents/GitHub/Libgen/data/EAD_PFP/0_unknown_/spectrum.ms
>quality UNKNOWN

>ms2peaks
50.014058 130.0
51.022261 433.0
52.029225 110.0
53.036758 42.0
54.035941 8.0
55.053905 157.0
55.933268 8.0
56.048348 936.0
56.964421 45.0
57.031731 35.0
57.934885 10.0
58.063205 10.0
59.048218 301.0
60.984935 24.0
60.995645 24.0
62.015138 47.0
63.022872 164.0
64.024605 23.0
64.029315 9.0
65.037409 945.0
66.041432 53.0
67.053955 129.0
68.025689 8.0
68.993832 86.0
70.064726 948.0
71.071169 10.0
73.065396 416.0
74.013839 29.0
75.021012 39.0
76.029856 49.0
77.039419 859.0
78.039203 49.0
78.042663 132.0
79.054136 274.0
80.04934 65.0
81.069283 73.0
82.063726 13.0
82.071716 11.0
83.08835 7.0
83.929853 5.0
84.959696 13.0
85.006656 11.0
86.01399 8.0
87.021783 10.0
88.028997 12.0
89.03925 288.0
90.045023 65.0
91.055527 1928.0
92.05944 97.0
93.060354 64.0
94.063827 48.0
95.06026 12.0
95.085101 12.0
95.953483 12.0
97.95112 7.0
99.466515 6.0
99.991857 6.0
101.036861 7.0
102.038794 20.0
102.043744 31.0
103.052638 178.0
104.061501 169.0
105.070254 138.0
106.064698 44.0
107.077011 33.0
107.082081 48.0
109.075128 11.0
109.102748 8.0
110.998804 23.0
113.000731 27.0
113.038221 9.0
114.042405 25.0
115.055218 2261.0
115.70763 7.0
116.059862 314.0
117.069915 3856.0
118.066258 233.0
119.073232 7.0
119.083922 35.0
120.081265 85.0
121.083849 21.0
122.094922 11.0
123.115636 7.0
124.077309 11.0
126.044855 29.0
126.905278 9.0
127.054309 97.0
128.061132 204.0
129.066376 69.0
130.063249 226.0
131.075173 81.0
132.079766 996.0
133.089319 2405.0
135.116546 5.0
138.064646 5.0
139.05287 9.0
140.049273 9.0
141.068996 33.0
142.07492 29.0
142.988323 6.0
143.071503 8.0
144.079817 23.0
145.06925 7.0
145.10111 12.0
146.098763 60.0
147.102227 17.0
147.112917 5.0
148.11865 3285.0
149.023743 6.0
149.106284 8.0
150.046787 9.0
151.05406 25.0
152.061084 123.0
153.070227 50.0
154.06325 36.0
155.059484 19.0
155.077784 16.0
156.080957 44.0
157.078801 11.0
157.087391 10.0
157.099651 8.0
158.090874 8.0
158.094574 30.0
159.080267 7.0
160.112411 6.0
161.095654 6.0
162.996131 11.0
163.053671 22.0
164.060954 27.0
165.070078 119.0
166.059571 10.0
166.079771 42.0
166.084821 32.0

