>compound 
>formula C22H26O12
>parentmass 505.13164727282
>ionization [M + Na]+
>instrumentation Unknown (LCMS)
>source file:/Users/fanzhoukong/Documents/GitHub/Libgen/data/EAD_PFP/0_unknown_/spectrum.ms
>quality UNKNOWN

>ms2peaks
50.016783 158.0
51.02359 421.0
52.031957 53.0
53.039495 82.0
55.038469 78.0
55.055919 208.0
56.048897 66.0
60.984633 37.0
62.013271 11.0
63.024078 183.0
64.031295 19.0
65.040172 488.0
66.04022 55.0
67.052707 160.0
68.057544 30.0
68.996602 129.0
70.067499 36.0
74.014938 57.0
75.022946 38.0
76.029223 86.0
77.03705 497.0
78.041987 178.0
79.056055 310.0
80.052122 106.0
81.072069 136.0
82.073617 29.0
84.085281 19.0
86.016786 56.0
89.035568 77.0
89.038338 210.0
90.045035 69.0
91.054573 985.0
92.05471 193.0
93.065037 118.0
94.064714 54.0
95.085032 57.0
96.078189 24.0
97.076506 27.0
98.014034 16.0
99.991709 23.0
101.037686 24.0
102.044553 63.0
103.05046 94.0
104.057288 45.0
105.071035 136.0
106.065472 64.0
107.084869 34.0
109.098374 13.0
111.001589 49.0
112.999354 16.0
115.054858 350.0
116.058415 108.0
117.064223 158.0
118.06691 63.0
119.078157 53.0
120.078675 51.0
123.081456 17.0
125.015911 7.0
126.048729 72.0
126.904736 22.0
127.055976 92.0
128.060573 317.0
129.0658 57.0
130.068248 101.0
131.067845 41.0
131.080185 76.0
132.019482 19.0
132.067882 21.0
132.078022 18.0
133.08983 26.0
133.10225 50.0
134.098677 39.0
135.103374 22.0
135.114734 46.0
136.087802 22.0
137.096449 15.0
139.049844 54.0
140.049711 39.0
141.065928 40.0
141.929406 22.0
142.064805 43.0
142.074165 57.0
143.074233 61.0
143.081283 53.0
144.08256 122.0
145.086147 49.0
145.968915 27.0
146.097955 42.0
147.083582 25.0
147.106142 26.0
147.96763 15.0
150.048304 31.0
152.060169 54.0
153.072946 64.0
154.075683 69.0
155.074421 54.0
156.082458 49.0
158.089892 42.0
160.084127 14.0
162.125772 11.0
164.048586 15.0
164.064906 25.0
165.067734 215.0
166.064791 61.0
166.073621 72.0
167.078778 83.0
168.080606 72.0
169.071423 46.0
170.08175 22.0
170.09452 32.0
171.098928 28.0
172.071605 19.0
172.101155 54.0
173.105022 17.0
173.128212 34.0
174.126019 18.0
176.060034 42.0
177.068831 47.0
178.079219 77.0
179.081996 81.0
180.081003 65.0
181.082801 40.0
182.101898 40.0
183.035085 19.0
184.076953 18.0
185.04046 42.0
187.038015 27.0
187.109034 16.0
188.060292 17.0
189.071889 89.0
190.067277 37.0
191.001654 58.0
191.080184 57.0
192.074061 60.0
192.095791 37.0
192.147381 24.0
192.984759 66.0
194.091386 34.0
194.980863 24.0
196.10965 17.0
197.098608 21.0
198.134195 8.0
201.066877 19.0
202.068264 34.0
202.076614 54.0
203.058172 64.0
203.066542 61.0
204.089679 29.0
205.073286 35.0
205.115386 20.0
207.033541 145.0
208.034098 24.0
209.025746 24.0
209.150395 31.0
210.154633 23.0
211.16983 46.0
213.073135 19.0
214.065222 14.0
215.085499 34.0
216.085167 30.0
217.094344 36.0
218.095761 26.0
219.102379 25.0
220.112776 20.0
223.106678 16.0
225.039383 26.0
227.102937 19.0
228.091634 13.0
229.193691 12.0
232.111194 19.0
234.131918 21.0
238.160287 10.0
239.098495 31.0
240.096272 8.0
242.982854 44.0
244.109581 11.0
248.133001 19.0
248.987078 15.0
250.968053 10.0
250.994443 34.0
252.14578 8.0
257.104106 14.0
258.989331 15.0
261.114076 12.0
261.982273 12.0
265.017905 64.0
266.9927 31.0
268.212207 11.0
270.972329 7.0
272.999884 17.0
279.098437 11.0
281.049332 68.0
282.053689 51.0
283.053197 22.0
289.27575 12.0
299.076014 8.0
307.045082 20.0
315.028481 8.0
323.075649 11.0
325.070174 50.0
326.959239 8.0
329.114963 14.0
335.075707 23.0
337.087112 166.0
341.082711 8.0
343.077546 64.0
349.0439 19.0
351.102214 26.0
351.135264 8.0
353.081939 21.0
355.100433 60.0
366.090334 8.0
367.061911 25.0
367.095701 17.0
369.988083 8.0
383.071398 8.0
385.087223 13.0
389.132842 8.0
400.98449 23.0
409.063598 13.0
443.148407 7.0
457.095919 8.0
469.283837 17.0
473.109326 67.0
487.121259 30.0
502.110078 11.0
503.115936 69.0
503.458765 17.0
504.124993 609.0
505.13509 4063.0

