>compound 
>formula C26H28O15
>parentmass 603.13204119599
>ionization [M + Na]+
>instrumentation Unknown (LCMS)
>source file:/Users/fanzhoukong/Documents/GitHub/Libgen/data/EAD_PFP/0_unknown_/spectrum.ms
>quality UNKNOWN

>ms2peaks
127.052765 118.0
128.063994 130.0
129.054782 36.0
130.061641 35.0
130.99283 21.0
131.0758 49.0
132.081509 17.0
133.027778 11.0
135.048826 17.0
139.038421 25.0
141.073049 103.0
142.066098 39.0
143.075547 47.0
144.082686 19.0
145.095735 11.0
164.060054 59.0
165.070423 193.0
166.061182 70.0
167.063751 61.0
167.072621 89.0
168.080779 72.0
169.065228 31.0
170.090867 26.0
171.028636 28.0
173.039484 47.0
174.131393 17.0
176.061521 65.0
177.067729 43.0
178.074198 110.0
179.071707 59.0
180.082526 64.0
181.089585 62.0
182.082274 33.0
183.080343 37.0
184.043912 26.0
185.046001 43.0
187.055648 21.0
189.066726 137.0
190.071555 42.0
191.000524 55.0
191.081764 43.0
192.979562 87.0
194.092981 42.0
195.09053 35.0
197.102967 11.0
199.073215 23.0
201.018503 11.0
202.078262 80.0
203.091911 35.0
204.07733 41.0
205.157719 16.0
207.030966 121.0
209.004764 28.0
210.989332 27.0
212.063611 25.0
213.07767 19.0
215.081468 45.0
216.066706 12.0
218.093144 29.0
220.085422 30.0
224.113328 24.0
225.066117 11.0
227.024974 21.0
228.083053 20.0
229.069442 127.0
231.0888 39.0
232.101049 32.0
235.083506 19.0
242.075448 33.0
242.993867 14.0
246.091373 20.0
248.98897 27.0
251.117408 25.0
256.043702 24.0
258.04306 47.0
261.979456 15.0
265.027823 39.0
266.015911 19.0
267.00426 27.0
268.978378 17.0
272.096205 12.0
273.071454 12.0
281.044805 22.0
281.051365 90.0
285.04141 32.0
286.052849 61.0
287.052788 44.0
288.059467 26.0
291.775743 12.0
299.078105 44.0
301.094153 19.0
307.019746 21.0
308.031615 83.0
309.038234 202.0
313.02911 12.0
317.087485 752.0
327.097914 20.0
336.109894 11.0
337.035433 51.0
363.043944 12.0
382.069863 12.0
396.181758 12.0
405.142748 12.0
423.181968 28.0
440.075539 28.0
450.030359 12.0
453.082085 131.0
454.087704 132.0
467.09281 23.0
469.076608 64.0
470.080696 101.0
471.090125 225.0
482.250083 12.0
498.079966 70.0
499.090554 430.0
513.093159 22.0
513.102009 129.0
527.100524 38.0
527.125244 12.0
531.106989 15.0
540.093799 45.0
543.098616 18.0
543.116866 37.0
544.117295 71.0
557.15317 12.0
573.109693 12.0
585.12305 85.0
600.101363 32.0
601.112102 380.0
602.128461 2953.0
603.13133 5753.0
603.14573 11556.0

