>compound 
>formula C10H12N2O4
>parentmass 225.086990356445
>ionization [M + H]+
>instrumentation Unknown (LCMS)
>source file:/Users/fanzhoukong/Documents/GitHub/Libgen/data/NIST_MONA/0_unknown_/spectrum.ms
>quality UNKNOWN

>ms2peaks
53.00189 29.50669
53.03858 10.22966
65.03877 80.65395
71.01279 12.62537
74.02396 43.74146
77.03879 13.0537
79.05459 21.67933
80.04966 95.63625
89.03886 41.34342
92.04982 95.60409
93.03352 28.21363
99.00775 14.7784
106.0651 26.72262
107.0492 23.87636
108.0447 55.70669
109.052 5.70635
110.0604 100.0
116.0497 62.36922
117.0337 19.38434
117.0567 6.13686
120.0443 22.76433
133.0522 6.53869
134.0599 51.48574
136.0394 56.67269
144.0442 13.9881
148.0392 13.54365
162.055 89.6452

