>compound 
>formula C20H16O5
>parentmass 337.10705461353007
>ionization [M + H]+
>instrumentation Unknown (LCMS)
>source file:/Users/fanzhoukong/Documents/GitHub/Libgen/data/EAD_PFP/0_unknown_/spectrum.ms
>quality UNKNOWN

>ms2peaks
50.015871 107.0
51.024071 339.0
53.037141 31.0
55.055711 136.0
57.032791 102.0
60.985971 29.0
62.016941 94.0
63.025441 117.0
64.031111 33.0
65.038411 309.0
66.041631 33.0
67.055741 73.0
68.996431 134.0
74.016461 31.0
75.022781 49.0
76.028211 86.0
77.03947 1217.0
78.04616 95.0
79.05242 136.0
81.07015 65.0
87.02261 31.0
88.03166 78.0
89.03913 423.0
91.04978 154.0
91.05352 705.0
92.02639 48.0
92.05271 56.0
93.06302 33.0
95.05434 55.0
95.08013 46.0
98.0178 26.0
101.04348 31.0
102.04841 63.0
103.05334 134.0
104.0522 44.0
105.03479 450.0
106.06538 54.0
109.04304 32.0
110.99841 31.0
113.01802 77.0
113.03989 66.0
114.03778 32.0
114.0472 37.0
115.05583 675.0
116.02352 100.0
116.04568 70.0
117.04931 54.0
117.05779 84.0
118.0562 38.0
119.01502 33.0
119.03961 20.0
119.08664 35.0
121.02728 32.0
121.07039 25.0
125.03886 22.0
126.05087 76.0
127.05813 243.0
128.06496 364.0
129.06241 58.0
129.07243 102.0
130.99155 25.0
131.05659 41.0
132.02959 39.0
133.03215 534.0
134.06235 28.0
135.04298 73.0
135.06802 42.0
139.05791 280.0
140.06242 52.0
141.06241 38.0
141.07056 166.0
142.06596 28.0
143.07892 38.0
145.06724 58.0
145.07551 46.0
145.9689 38.0
147.07288 20.0
149.020509 36.0
149.036059 46.0
149.046809 55.0
150.049509 627.0
151.055589 1399.0
152.063799 5887.0
153.072939 704.0
154.075699 69.0
155.054879 114.0
155.082949 60.0
156.057979 95.0
157.069239 61.0
158.071429 43.0
159.050859 39.0
159.112639 26.0
160.050669 23.0
161.025019 1274.0
162.047229 133.0
163.057649 1270.0
164.063669 991.0
165.070279 4565.0
166.079969 295.0
167.076259 69.0
167.090189 290.0
168.062849 47.0
168.079359 27.0
169.052339 26.0
169.070169 90.0
170.107329 41.0
171.073329 45.0
171.079759 125.0
172.115319 24.0
173.062529 15.0
174.048509 83.0
175.063219 106.0
176.062679 2393.0
177.071499 1076.0
178.080579 3653.0
179.088609 1290.0
180.058709 454.0
181.067049 995.0
182.070249 198.0
183.045739 57.0
183.085489 24.0
184.057069 20.0
185.037859 27.0
185.056519 86.0
187.036739 33.0
187.055499 308.0
188.063049 257.0
188.447459 21.0
189.073299 4871.0
190.083559 1135.0
191.089739 1981.0
191.882769 21.0
192.057849 76.0
192.076859 297.0
193.067869 6450.0
194.075089 826.0
195.082179 349.0
197.087709 35.0
197.100079 58.0
199.050929 32.0
199.059229 93.0
199.081339 49.0
200.068079 824.0
201.071139 1337.0
202.080889 7401.0
203.087579 2627.0
204.067399 197.0
204.077189 252.0
204.095379 364.0
205.067789 1811.0
206.074839 866.0
207.084399 1973.0
208.056819 1390.0
209.062699 2942.0
210.070979 468.0
210.994889 20.0
211.041849 62.0
211.057509 50.0
211.080279 28.0
213.071809 435.0
214.078249 204.0
215.089929 3077.0
216.096799 567.0
217.094479 706.0
217.098809 1238.0
218.075639 2046.0
219.085108 3108.0
220.048958 34.0
220.089638 671.0
221.086288 3306.0
222.070588 472.0
223.076078 1889.0
224.080918 110.0
225.065958 79.0
225.080668 162.0
225.090958 159.0
226.079698 885.0
227.088318 538.0
228.088838 117.0
228.097698 443.0
229.097468 1528.0
230.078608 2463.0
231.084198 4111.0
232.090468 1163.0
233.070508 1781.0
233.083968 300.0
234.070618 1788.0
235.075868 2716.0
236.050138 2759.0
237.059618 1912.0
238.065218 1825.0
239.089578 23.0
241.062798 57.0
242.078348 88.0
243.082298 557.0
244.088328 376.0
245.097958 4570.0
245.704128 48.0
246.074338 708.0
246.080488 2080.0
247.081908 4419.0
248.085368 3860.0
249.053758 26.0
249.092408 4382.0
250.065858 257.0
251.061368 76.0
251.073788 1599.0
252.083748 1315.0
253.087968 4711.0
254.076978 41.0
255.083588 782.0
255.684738 27.0
256.085888 85.0
256.090588 312.0
257.061898 115.0
257.079178 270.0
258.069658 1526.0
259.079388 3572.0
260.075298 145.0
260.089518 376.0
261.074718 295.0
261.092118 2658.0
262.056988 84.0
262.074448 2410.0
263.077678 54.0
264.046218 3858.0
265.065958 594.0
265.086708 263.0
266.076518 30.0
266.094098 118.0
267.101758 81.0
269.055368 38.0
270.073468 122.0
271.078988 645.0
272.075058 20.0
272.086348 362.0
273.098858 6978.0
274.100228 1293.0
275.077468 2580.0
276.085738 6664.0
277.084428 6365.0
278.052228 43.0
278.070198 96.0
278.079998 186.0
278.114328 63.0
279.059398 146.0
279.072488 4361.0
280.050338 52.0
280.079848 490.0
281.034798 38.0
281.049568 29.0
281.115278 23.0
283.071578 40.0
283.078168 333.0
284.054758 23.0
284.082808 59.0
285.059488 52.0
286.064308 204.0
287.074228 263.0
288.069318 41.0
288.079298 63.0
289.091108 1085.0
290.098007 4049.0
291.101637 8815.0
292.071877 29.0
292.078567 119.0
292.105357 66.0
292.354867 21.0
292.472117 21.0
292.629647 51.0
293.068857 72.0
293.088967 408.0
293.844157 28.0
294.092727 2473.0
295.101577 13852.0
299.072887 40.0
300.071577 47.0
301.087197 3632.0
302.102857 738.0
303.065627 323.0
304.076057 863.0
305.072797 84.0
305.089887 128.0
306.040297 24.0
307.019607 34.0
308.083047 30.0
308.110547 71.0
309.113837 106.0
309.141427 33.0
315.754287 18.0
317.035017 21.0
317.085587 82.0
317.108287 35.0
318.026527 62.0
318.057967 76.0
318.071937 85.0
318.092907 250.0
319.096567 19746.0
320.089547 59.0
320.108837 52.0
320.157907 38.0
320.464737 40.0
320.555917 45.0
320.631357 184.0
320.657667 128.0
320.766427 18.0
320.945417 84.0
320.992807 53.0
321.077067 180.0
322.067847 36.0
326.141737 109.0
326.747047 34.0
327.730567 99.0
331.520667 23.0
336.079207 38.0
336.091777 35.0
336.106147 43.0
337.110847 10237.0

