>compound 
>formula C36H28O16
>parentmass 717.14501581556
>ionization [M + H]+
>instrumentation Unknown (LCMS)
>source file:/Users/fanzhoukong/Documents/GitHub/Libgen/data/EAD_PFP/0_unknown_/spectrum.ms
>quality UNKNOWN

>ms2peaks
50.015138 178.0
51.023359 550.0
52.027491 52.0
53.027862 48.0
53.037852 179.0
54.039204 29.0
55.019385 110.0
55.049915 146.0
60.984504 86.0
62.017026 55.0
63.021647 160.0
64.023369 25.0
65.04089 968.0
66.042542 78.0
67.054263 169.0
68.048615 40.0
68.996576 520.0
71.012009 51.0
72.936772 16.0
74.014963 75.0
75.021285 102.0
76.028416 47.0
76.029266 90.0
77.038818 1227.0
78.042919 165.0
79.018681 80.0
79.030871 249.0
79.050901 61.0
80.051332 84.0
81.033354 76.0
81.068634 64.0
82.055975 19.0
83.048397 167.0
85.05114 25.0
87.025643 30.0
89.039446 246.0
90.044287 68.0
91.051969 276.0
91.055709 1802.0
92.05304 145.0
93.033121 121.0
93.053911 113.0
93.065252 54.0
94.044043 44.0
94.063053 31.0
95.054704 38.0
95.062344 51.0
95.080494 42.0
96.081316 21.0
97.028517 100.0
98.014299 27.0
99.992982 26.0
101.040933 21.0
102.045855 108.0
103.053756 90.0
104.053628 47.0
105.068359 135.0
106.067841 34.0
107.012252 66.0
108.068764 20.0
108.082004 32.0
109.091595 23.0
111.042238 164.0
113.000801 77.0
114.043513 24.0
115.053184 450.0
116.056746 111.0
117.061487 84.0
118.047148 26.0
118.067368 55.0
119.0348 23.0
119.06473 25.0
119.08504 29.0
121.028913 48.0
123.042846 132.0
125.024099 195.0
126.04486 99.0
127.039952 29.0
127.045472 221.0
127.055412 173.0
128.058913 104.0
128.062243 237.0
129.071935 87.0
130.062116 77.0
130.993308 36.0
131.069558 35.0
132.068489 21.0
133.018101 29.0
133.075741 31.0
134.035762 28.0
135.042494 54.0
137.038607 27.0
139.042419 1895.0
140.053831 47.0
141.067762 88.0
142.060814 21.0
143.060875 55.0
144.077367 32.0
145.075048 21.0
146.07025 18.0
146.09748 20.0
147.083111 26.0
150.041876 70.0
151.040687 655.0
152.063339 323.0
153.01796 1169.0
154.050942 23.0
154.066752 68.0
154.074062 21.0
155.054463 69.0
155.080073 26.0
156.079605 55.0
157.065116 75.0
157.085996 26.0
158.095638 25.0
159.086269 21.0
160.056461 26.0
161.030822 17.0
163.040955 1077.0
164.060756 55.0
165.047218 46.0
165.067358 141.0
166.050529 31.0
167.055611 50.0
168.058632 69.0
169.065944 95.0
170.031575 18.0
170.091595 26.0
171.040907 43.0
171.081907 28.0
172.081528 23.0
172.109808 27.0
174.049411 25.0
175.035623 23.0
175.147103 34.0
176.059704 50.0
176.066204 53.0
177.051566 27.0
177.063286 35.0
178.073677 56.0
179.038419 76.0
179.052839 59.0
180.07675 40.0
181.054812 204.0
183.044055 77.0
184.054056 72.0
185.056178 58.0
186.069019 66.0
187.05113 23.0
189.058153 112.0
189.067583 126.0
190.080515 39.0
190.997326 31.0
191.056896 28.0
192.057508 27.0
192.980439 49.0
193.100209 13.0
195.038072 28.0
195.044932 34.0
195.073642 30.0
196.053174 108.0
197.061245 156.0
199.035428 29.0
199.045098 49.0
200.03866 55.0
200.05669 58.0
201.055561 94.0
202.075013 66.0
203.070534 55.0
204.079686 17.0
205.056267 41.0
205.153087 17.0
207.03335 137.0
208.056532 40.0
209.046823 40.0
209.075143 57.0
211.044416 37.0
211.072876 22.0
212.046067 27.0
213.055809 344.0
214.06078 97.0
215.052312 43.0
215.075292 32.0
216.092213 22.0
217.049465 35.0
218.078276 19.0
219.080498 47.0
220.063229 17.0
221.062731 34.0
223.039244 71.0
224.046935 82.0
225.052497 65.0
225.055437 120.0
226.063258 61.0
227.05117 71.0
227.07333 87.0
228.044211 50.0
229.052743 421.0
231.069056 173.0
233.053838 25.0
234.05989 28.0
235.036591 27.0
235.084641 29.0
236.046913 50.0
237.056384 165.0
239.069677 17.0
240.078019 21.0
241.04587 116.0
241.05043 168.0
242.058352 277.0
243.062253 129.0
244.037635 22.0
245.050236 67.0
246.055698 35.0
247.061709 32.0
249.038112 20.0
250.064134 26.0
251.070505 32.0
252.044707 81.0
253.051938 164.0
254.06432 73.0
255.069321 155.0
257.038184 50.0
259.054027 43.0
259.065047 188.0
260.060928 25.0
261.054 31.0
262.060041 30.0
263.068013 41.0
265.041916 97.0
265.051476 132.0
266.058797 21.0
267.047199 28.0
267.061609 56.0
269.042382 115.0
269.058462 84.0
270.057243 269.0
271.062745 621.0
273.137578 22.0
275.054601 39.0
276.074222 16.0
277.069644 742.0
279.065837 39.0
281.051129 104.0
281.074139 37.0
282.053851 159.0
283.063242 259.0
285.138785 10.0
287.065848 62.0
288.06591 123.0
289.054371 28.0
289.074361 84.0
289.084371 45.0
290.059563 34.0
291.059784 54.0
293.046997 27.0
293.082217 23.0
294.057409 16.0
295.06955 37.0
297.070383 36.0
299.079626 42.0
301.071849 118.0
302.056841 18.0
303.062182 86.0
304.067493 21.0
305.079605 57.0
307.062518 34.0
309.074241 30.0
315.05838 19.0
316.072911 56.0
317.090853 45.0
318.052744 22.0
319.058086 41.0
319.072086 50.0
321.075329 30.0
322.09071 16.0
327.064137 27.0
329.06737 30.0
329.111781 28.0
331.042843 22.0
333.063596 1146.0
334.079828 27.0
335.054599 24.0
335.077909 50.0
337.065922 146.0
343.061661 55.0
344.067583 21.0
345.076824 59.0
347.065047 62.0
348.065879 27.0
349.06814 64.0
351.080653 37.0
351.089833 83.0
352.092764 19.0
355.063999 59.0
356.07257 17.0
357.077032 54.0
360.061716 27.0
361.069928 132.0
362.081429 73.0
363.062571 92.0
364.065622 34.0
365.071944 200.0
366.077775 42.0
367.079337 423.0
371.054013 30.0
372.064264 15.0
373.066435 100.0
375.084258 30.0
377.067601 40.0
378.074553 64.0
379.080964 741.0
380.088686 55.0
381.095867 41.0
383.15638 46.0
385.080153 53.0
389.058119 18.0
389.063919 103.0
390.075151 216.0
391.078022 487.0
393.058465 31.0
397.092921 160.0
399.948155 6.0
401.067567 19.0
402.076608 109.0
403.081 208.0
407.079486 657.0
408.062397 40.0
408.088117 307.0
409.094069 849.0
411.075862 34.0
420.084355 99.0
421.066746 42.0
421.092897 183.0
426.101114 65.0
427.102675 79.0
438.096892 16.0
439.089873 18.0
439.100133 87.0
441.083286 409.0
443.96836 6.0
471.084 31.0
501.108525 40.0
511.10503 36.0
528.106765 45.0
529.120316 281.0
545.10532 29.0
546.112161 148.0
547.113013 60.0
547.126813 279.0
549.117536 50.0
557.146718 6.0
559.093071 30.0
560.094172 22.0
561.107784 345.0
563.119146 15.0
565.087529 31.0
565.127079 78.0
573.105541 106.0
578.104639 64.0
579.1155 2241.0
590.091406 18.0
591.115098 281.0
648.208872 6.0
681.127251 27.0
689.261113 6.0
699.123308 24.0
699.136248 85.0
715.133341 55.0
716.131823 153.0
717.136214 100.0
717.151964 399.0
717.201764 54.0

