>compound 
>formula C21H32O10
>parentmass 445.20682822706
>ionization [M + H]+
>instrumentation Unknown (LCMS)
>source file:/Users/fanzhoukong/Documents/GitHub/Libgen/data/EAD_PFP/0_unknown_/spectrum.ms
>quality UNKNOWN

>ms2peaks
114.043065 51.0
115.055894 8898.0
116.059483 495.0
117.071672 8691.0
118.070151 131.0
119.084641 2003.0
121.064099 275.0
123.038137 80.0
123.081607 59.0
125.061016 161.0
126.046735 318.0
127.050684 845.0
128.053063 96.0
128.063033 3552.0
129.070522 1207.0
130.078592 57.0
131.084981 296.0
133.065309 89.0
138.044815 40.0
139.053784 88.0
141.071073 1793.0
142.078182 1044.0
143.085351 7573.0
144.05607 257.0
144.09018 88.0
145.078469 8312.0
146.074859 385.0
146.585623 65.0
147.083008 7816.0
148.086267 93.0
149.057046 441.0
149.071396 780.0
150.045405 114.0
150.056195 138.0
151.073134 1228.0
152.066924 2825.0
153.070043 5209.0
154.080112 2086.0
155.086161 9223.0
156.095491 4254.0
157.09214 7002.0
157.10319 4974.0
158.073479 1018.0
159.078868 3838.0
160.092427 439.0
161.074376 2198.0
161.086806 1805.0
161.105457 829.0
162.071805 72.0
163.072305 2341.0
164.060824 213.0
165.064923 1156.0
165.072473 8065.0
166.079652 5008.0
167.084831 1852.0
168.096871 695.0
169.10174 5319.0
170.070029 445.0
170.104519 365.0
170.553283 52.0
171.114088 22502.0
172.090697 263.0
172.3941 87.0
173.097117 4454.0
174.107776 231.0
175.094135 2487.0
175.774051 48.0
176.081984 127.0
177.096093 14028.0
178.080422 376.0
178.423086 46.0
179.100262 1915.0
179.106812 6695.0
180.094081 174.0
181.1012 10773.0
182.072799 150.0
182.100549 680.0
183.081438 1569.0
183.086738 2899.0
184.090228 1448.0
185.099097 5490.0
186.075996 157.0
186.102706 123.0
187.095655 1014.0
188.119455 170.0
189.119084 7634.0
190.713468 66.0
191.103292 2381.0
192.087731 111.0
193.08152 87.0
194.073779 263.0
195.083609 183.0
196.091968 124.0
197.097407 1370.0
198.102686 389.0
198.45719 100.0
198.810633 83.0
199.116016 26614.0
200.152735 190.0
200.504908 46.0
201.096284 2709.0
202.097763 102.0
203.105882 9487.0
205.08061 77.0
205.117071 276.0
207.115609 86.0
208.004747 75.0
208.112148 61.0
209.098347 4427.0
211.069155 44.0
211.080535 162.0
212.086565 128.0
213.093544 356.0
215.103172 550.0
215.107472 3272.0
216.118732 135.0
217.126571 14934.0
218.11649 53.0
218.498604 64.0
219.097059 252.0
219.143479 218.0
221.104157 126.0
223.114536 64.0
225.084044 92.0
225.095804 77.0
226.105183 87.0
226.367466 99.0
227.106493 1508.0
227.112413 22161.0
228.296473 114.0
229.121671 114.0
229.130571 215.0
231.14129 8409.0
232.105908 48.0
233.115918 121.0
233.120418 372.0
234.123617 93.0
235.131986 254.0
239.111403 59.0
241.128831 2392.0
243.110469 36.0
245.123198 11454.0
246.125747 45.0
247.134976 280.0
249.142615 289.0
249.150345 594.0
251.094713 51.0
257.125568 30.0
259.140167 11623.0
261.344747 49.0
263.121503 140.0
263.135783 1937.0
265.146662 51.0
275.141874 23.0
277.147472 13456.0
279.09485 58.0
281.144339 207.0
283.49812 23.0
290.703566 23.0
294.132648 81.0
295.156737 9200.0
311.126854 23.0
313.167433 961.0
341.15368 23.0
365.16003 29.0

