>compound 
>formula C8H13NO2
>parentmass 156.10190966256002
>ionization [M + H]+
>instrumentation Unknown (LCMS)
>source file:/Users/fanzhoukong/Documents/GitHub/Libgen/data/EAD_PFP/0_unknown_/spectrum.ms
>quality UNKNOWN

>ms2peaks
50.014812 66.0
51.023723 134.0
51.939574 8.0
52.028564 11.0
52.939094 16.0
53.038925 48.0
54.034525 14.0
55.054636 104.0
55.933997 18.0
56.941488 8.0
57.069448 19.0
58.064679 225.0
59.04818 8.0
60.983341 30.0
62.014302 18.0
63.023563 120.0
64.017454 6.0
64.030784 7.0
65.038085 637.0
66.044495 56.0
67.054626 93.0
67.935887 7.0
68.048977 22.0
68.994488 102.0
70.064559 6.0
70.95625 7.0
72.043861 12.0
72.936301 18.0
74.015322 23.0
75.014853 21.0
75.021633 29.0
76.031334 42.0
77.038325 521.0
78.034626 14.0
78.041546 73.0
79.053006 153.0
80.049937 40.0
80.056067 27.0
81.032838 7.0
81.061938 6.0
81.068988 16.0
83.04875 5.0
83.08358 8.0
84.079481 5.0
85.008131 5.0
85.909202 7.0
86.016382 8.0
86.943773 6.0
89.039795 105.0
90.040926 22.0
91.056067 1178.0
92.058097 85.0
93.065608 28.0
94.060549 27.0
95.0541 5.0
95.0818 18.0
95.952081 12.0
96.080711 18.0
96.937222 14.0
97.948712 5.0
98.099052 5.0
101.038335 5.0
102.037306 6.0
102.047196 39.0
103.056097 55.0
104.048977 20.0
104.055978 15.0
105.043608 5.0
105.070718 108.0
106.069199 38.0
107.08456 12.0
108.069121 5.0
109.073532 6.0
110.022973 14.0
110.072303 6.0
110.994083 9.0
113.001155 48.0
115.055637 270.0
116.058158 36.0
117.061848 43.0
118.056019 8.0
118.066659 34.0
119.06187 16.0
119.08004 8.0
119.08753 9.0
120.079511 15.0
122.083393 5.0
122.097463 8.0
126.048506 30.0
126.900117 7.0
127.054657 70.0
128.060368 162.0
129.067839 25.0
130.064709 79.0
130.99252 50.0
131.05868 6.0
131.08 11.0
132.019301 14.0
132.058701 6.0
132.077851 8.0
133.073822 5.0
133.104332 5.0
134.063333 6.0
134.101893 13.0
139.056627 14.0
140.054188 14.0
140.071578 6.0
141.065789 19.0
141.069279 33.0
141.926929 7.0
142.06585 19.0
143.07061 21.0
144.077721 15.0
145.078942 9.0
145.965253 13.0
147.966314 11.0
150.044616 7.0
151.053077 34.0
152.060068 72.0
153.066799 55.0
154.06831 63.0
154.07925 23.0
155.06702 25.0
155.08287 14.0
156.087281 202.0

