>compound 
>formula C19H26O13
>parentmass 485.1265618923901
>ionization [M + Na]+
>instrumentation Unknown (LCMS)
>source file:/Users/fanzhoukong/Documents/GitHub/Libgen/data/EAD_PFP/0_unknown_/spectrum.ms
>quality UNKNOWN

>ms2peaks
126.041129 22.0
126.046629 27.0
127.052769 83.0
128.061809 311.0
129.059249 47.0
130.065028 124.0
131.081448 40.0
132.059028 25.0
133.102408 37.0
134.104498 11.0
139.051197 144.0
140.049907 30.0
141.064977 213.0
142.067357 53.0
143.011207 47.0
143.074466 51.0
144.068676 51.0
145.971516 19.0
161.083794 28.0
163.056724 36.0
164.057743 75.0
165.070623 458.0
166.065173 120.0
166.075273 96.0
167.081703 94.0
168.079713 83.0
169.050163 297.0
170.092363 48.0
171.023742 31.0
172.108002 38.0
173.025542 138.0
174.099312 30.0
175.040282 31.0
176.060472 103.0
177.058852 29.0
177.165772 19.0
178.077071 293.0
179.071981 45.0
179.083771 102.0
180.063071 28.0
180.084111 72.0
180.983091 24.0
182.087861 55.0
182.188331 42.0
183.036901 77.0
184.033591 43.0
184.42449 26.0
185.04363 5940.0
186.04709 121.0
188.14411 21.0
189.06972 203.0
190.07053 63.0
191.00084 96.0
191.0753 104.0
192.005369 29.0
192.979879 85.0
193.096929 27.0
194.098769 89.0
194.982799 27.0
195.110029 20.0
196.107469 44.0
197.038679 48.0
197.129459 28.0
198.125118 35.0
200.064418 32.0
201.036928 318.0
202.078608 121.0
203.053188 1968.0
204.142088 38.0
205.064097 32.0
206.096477 28.0
207.031357 261.0
208.111047 21.0
209.109987 27.0
209.156717 56.0
210.988327 24.0
212.978006 23.0
215.083306 84.0
216.041216 33.0
218.080546 48.0
219.111795 28.0
220.112045 36.0
222.987435 28.0
224.994575 41.0
225.068055 27.0
226.077354 23.0
227.085974 27.0
228.087964 19.0
229.099574 51.0
231.044614 53.0
231.095244 33.0
232.119454 40.0
233.039763 77.0
235.093023 11.0
238.118773 11.0
242.983732 25.0
244.043102 26.0
245.040382 34.0
247.056431 22.0
248.992621 40.0
252.967141 27.0
254.19015 19.0
256.11797 12.0
256.83965 12.0
257.22759 12.0
261.072289 52.0
263.048269 51.0
265.018909 64.0
267.001698 75.0
269.001518 51.0
271.105578 12.0
275.050647 23.0
275.060387 56.0
277.065667 70.0
279.084767 22.0
281.042226 26.0
281.056996 96.0
282.048176 36.0
283.050986 42.0
283.065846 43.0
285.061966 12.0
286.255726 17.0
287.058486 86.0
289.065325 55.0
292.089495 11.0
293.063035 17.0
299.061934 31.0
304.058183 45.0
305.066853 698.0
313.956162 12.0
315.215861 12.0
317.090071 159.0
318.312331 13.0
321.060471 572.0
322.06529 310.0
323.09105 6524.0
326.28782 24.0
333.753219 12.0
341.082318 40.0
345.079627 29.0
347.089787 322.0
363.093455 1717.0
377.061012 12.0
377.078132 61.0
379.377662 12.0
381.081582 53.0
395.08002 75.0
395.09754 1100.0
399.205049 12.0
411.092808 29.0
423.094476 12.0
426.403535 43.0
435.093104 28.0
437.114314 26.0
441.154323 88.0
453.100061 92.0
455.120841 66.0
467.119559 79.0
469.135249 12.0
482.087997 86.0
483.110217 500.0
483.502157 87.0
483.525867 41.0
484.118427 4209.0
485.127677 6199.0
485.132007 16205.0

