>compound 
>formula C11H8O4
>parentmass 205.04953973612
>ionization [M + H]+
>instrumentation Unknown (LCMS)
>source file:/Users/fanzhoukong/Documents/GitHub/Libgen/data/EAD_PFP/0_unknown_/spectrum.ms
>quality UNKNOWN

>ms2peaks
50.015589 431.0
51.023789 1472.0
52.032868 63.0
53.004027 26.0
53.040407 41.0
55.019056 631.0
55.936215 13.0
56.049835 6.0
56.965165 20.0
57.070945 21.0
59.048923 8.0
61.000912 6.0
61.007802 33.0
62.015811 99.0
63.023521 1016.0
64.03152 12.0
65.040399 243.0
66.046819 8.0
67.056958 36.0
68.997657 608.0
73.005624 5.0
74.015183 137.0
75.024893 367.0
76.031182 875.0
77.041601 3922.0
78.048301 50.0
79.05631 178.0
80.050629 9.0
81.034409 30.0
81.041459 17.0
81.052929 17.0
81.063509 18.0
81.070569 42.0
83.012837 10.0
83.051227 11.0
84.959146 14.0
85.006106 6.0
86.016155 49.0
87.024845 234.0
88.034834 30.0
89.039543 524.0
90.045313 9.0
91.054862 708.0
92.055001 13.0
92.068161 7.0
93.070051 102.0
94.06501 6.0
95.012739 17.0
95.026109 35.0
95.039469 17.0
95.049029 125.0
97.070048 5.0
99.993976 5.0
101.041925 653.0
101.713625 4.0
102.048825 4813.0
102.701014 6.0
102.717894 19.0
102.723854 25.0
103.058724 5316.0
103.925743 6.0
104.028623 16.0
104.058603 17.0
104.448693 5.0
104.632993 7.0
105.043233 306.0
107.049711 793.0
109.02299 10.0
109.03118 19.0
109.06801 13.0
109.09051 5.0
110.037979 38.0
111.003979 12.0
112.028118 5.0
113.041337 2413.0
114.047607 55.0
115.056236 539.0
116.048205 5.0
117.034885 343.0
117.056075 11.0
118.044894 35.0
118.948113 8.0
119.051773 124.0
120.048973 19.0
120.059703 32.0
121.028772 6.0
121.047092 19.0
121.054632 16.0
121.067572 490.0
123.047031 53.0
125.044739 5.0
126.047979 7.0
127.053018 7.0
127.057438 20.0
128.067587 32.0
129.039447 446.0
130.044046 3474.0
130.618866 47.0
130.630066 74.0
130.644626 16.0
131.026725 4.0
131.053635 12040.0
132.046875 6.0
132.055885 31.0
132.068275 5.0
132.211275 5.0
133.033694 13.0
135.041113 15.0
135.047943 80.0
137.025721 370.0
141.037229 1416.0
143.050027 39.0
144.080597 6.0
145.032266 373.0
145.969305 8.0
147.047145 1268.0
148.055034 167.0
149.062763 3835.0
150.045123 5.0
152.064201 39.0
153.020021 5.0
153.056391 11.0
153.067301 9.0
154.07125 12.0
155.063849 14.0
155.087019 7.0
156.080429 7.0
157.030348 52.0
157.046308 12.0
158.039807 677.0
158.508137 32.0
158.513067 27.0
158.524167 80.0
159.051267 12997.0
160.013896 23.0
160.048596 65.0
160.052326 168.0
160.322606 6.0
160.361066 5.0
160.416896 5.0
161.025435 7.0
162.027675 6.0
163.041774 7784.0
165.074463 3.0
168.081031 5.0
169.02982 544.0
171.203199 5.0
173.833147 4.0
175.020846 5.0
175.040306 104.0
175.050666 26.0
176.050085 7045.0
177.056245 1823.0
179.018223 6.0
179.036573 22.0
184.11993 7.0
186.008319 10.0
186.031019 32.0
186.418699 27.0
187.042508 10768.0
188.055397 12.0
188.213937 5.0
188.503007 5.0
189.023877 20.0
189.069667 9.0
189.718116 6.0
191.004846 10.0
193.992254 5.0
194.070033 3.0
196.258322 3.0
201.054869 6.0
202.075728 6.0
203.037737 13.0
204.045407 300.0
204.372967 158.0
204.384187 80.0
204.409397 13.0
204.672786 6.0
205.055576 16350.0

