>compound 
>formula C14H22O4
>parentmass 277.14103018734005
>ionization [M + Na]+
>instrumentation Unknown (LCMS)
>source file:/Users/fanzhoukong/Documents/GitHub/Libgen/data/EAD_PFP/0_unknown_/spectrum.ms
>quality UNKNOWN

>ms2peaks
50.011267 48.0
51.018056 181.0
51.020856 234.0
52.027115 56.0
53.036064 49.0
54.038144 7.0
55.051773 92.0
56.96302 23.0
60.978937 58.0
63.018356 28.0
65.032055 7.0
65.036005 609.0
66.041624 40.0
67.050943 106.0
68.990801 109.0
71.04912 39.0
74.014127 33.0
75.012816 56.0
76.030166 18.0
77.034585 464.0
78.043864 146.0
79.052733 265.0
80.048812 33.0
81.068762 107.0
83.04677 21.0
84.048749 15.0
88.025766 7.0
89.039695 101.0
91.047573 18.0
91.053183 1090.0
92.055213 86.0
93.064622 48.0
93.99593 26.0
95.05409 38.0
97.063629 17.0
98.013717 19.0
103.048254 60.0
103.051234 37.0
104.052093 109.0
105.069852 107.0
106.065311 52.0
107.085741 19.0
109.062469 18.0
111.000497 39.0
112.996195 59.0
113.034735 16.0
114.097495 17.0
115.051714 343.0
116.059503 34.0
117.064272 121.0
118.057401 44.0
119.04724 25.0
119.080381 62.0
120.08093 21.0
121.063029 66.0
126.044535 54.0
126.901663 15.0
127.051784 81.0
128.061943 477.0
129.058282 53.0
129.069412 96.0
130.062952 44.0
130.98853 16.0
131.077121 71.0
132.01531 33.0
132.08061 23.0
133.068679 40.0
137.053276 16.0
140.046683 14.0
141.066403 140.0
142.078162 53.0
143.084141 72.0
145.09142 56.0
147.043767 25.0
147.066338 37.0
148.094577 15.0
149.059396 31.0
150.045355 26.0
151.057454 78.0
152.057234 48.0
152.060844 142.0
153.063943 154.0
154.067902 67.0
155.065381 27.0
155.080011 132.0
156.06851 21.0
156.08321 47.0
157.058939 50.0
157.09823 73.0
158.079599 55.0
158.098069 23.0
159.083768 80.0
160.050237 21.0
161.070586 43.0
162.089196 37.0
162.997194 50.0
163.047234 39.0
163.068505 62.0
164.059504 56.0
165.058573 31.0
165.068643 155.0
166.063192 32.0
166.074542 93.0
167.068311 45.0
168.076471 79.0
169.06348 20.0
169.07622 44.0
169.10042 79.0
170.080179 28.0
171.101218 136.0
172.090607 19.0
173.058366 53.0
173.090577 58.0
173.097037 34.0
175.073315 34.0
175.113505 32.0
176.055914 29.0
177.056893 24.0
178.080342 77.0
179.077892 29.0
179.087062 65.0
180.050611 17.0
180.080851 32.0
181.09583 34.0
181.09979 201.0
182.076659 27.0
183.081348 25.0
184.075497 13.0
184.091448 30.0
185.096337 68.0
187.078135 26.0
187.110305 26.0
189.062403 61.0
189.079923 94.0
190.998931 45.0
191.073402 38.0
192.074051 16.0
192.983419 19.0
193.08549 269.0
194.091399 43.0
195.093069 105.0
196.095968 18.0
197.097307 31.0
198.130137 26.0
199.108975 178.0
200.081944 27.0
201.089224 27.0
201.123954 15.0
202.078133 28.0
202.131053 36.0
203.087622 61.0
203.109942 52.0
204.078631 32.0
205.07626 40.0
206.12555 25.0
207.032318 68.0
209.031627 33.0
209.092527 32.0
210.083876 24.0
211.104606 31.0
213.089114 80.0
215.075742 32.0
215.100152 41.0
216.098411 24.0
217.120631 120.0
218.07583 19.0
218.12647 26.0
219.059219 19.0
221.077777 14.0
223.093876 25.0
224.081175 9.0
225.041254 32.0
227.101892 33.0
229.103701 48.0
229.121511 37.0
230.12647 19.0
231.100899 191.0
233.117228 17.0
234.040996 17.0
235.095756 13.0
235.166367 35.0
240.033101 26.0
241.084521 38.0
241.108861 42.0
242.985018 29.0
245.112238 71.0
246.137817 29.0
247.128596 274.0
257.082928 17.0
259.124176 340.0
260.139136 38.0
262.029113 75.0
265.020411 43.0
266.01966 22.0
272.049955 7.0
275.128623 80.0
276.141853 18.0
276.223273 54.0
277.142292 4538.0

