>compound 
>formula C60H102O28
>parentmass 1293.64498363542
>ionization [M + Na]+
>instrumentation Unknown (LCMS)
>source file:/Users/fanzhoukong/Documents/GitHub/Libgen/data/EAD_PFP/0_unknown_/spectrum.ms
>quality UNKNOWN

>ms2peaks
50.014842 84.0
51.021642 182.0
53.036094 102.0
53.039664 105.0
54.045344 24.0
55.053205 117.0
55.934015 23.0
57.067986 33.0
57.934136 7.0
60.994828 82.0
63.021239 165.0
65.036521 372.0
66.036551 90.0
67.053032 144.0
68.996133 72.0
74.013646 45.0
75.020797 70.0
77.035748 566.0
78.040688 94.0
79.054749 218.0
81.06723 155.0
82.073191 27.0
83.048751 28.0
86.013653 44.0
87.020514 12.0
88.024964 26.0
89.038875 144.0
91.056066 1190.0
92.053386 143.0
93.065597 75.0
94.066248 35.0
95.082748 41.0
97.95161 11.0
99.021981 17.0
101.037332 17.0
103.057083 162.0
104.052964 23.0
105.070704 80.0
106.067165 51.0
109.075556 15.0
110.997158 12.0
113.003219 41.0
115.05036 53.0
115.05351 311.0
116.056021 117.0
117.057581 53.0
117.061821 131.0
118.069822 43.0
119.058642 27.0
119.084292 55.0
120.086993 27.0
122.090944 13.0
124.995946 7.0
126.050676 53.0
127.055727 80.0
128.060328 231.0
129.049988 34.0
129.066678 73.0
130.066889 108.0
130.989139 39.0
131.066499 38.0
132.08231 13.0
138.032673 7.0
139.057744 40.0
141.068055 121.0
142.070466 55.0
144.084737 25.0
145.965198 44.0
147.956739 14.0
150.04696 45.0
151.053021 85.0
152.061232 160.0
153.067962 89.0
154.060973 47.0
155.068173 47.0
156.077434 23.0
156.085994 41.0
157.076475 24.0
157.099795 23.0
158.094715 33.0
159.102626 34.0
160.110036 22.0
162.047087 14.0
163.014988 47.0
163.055028 27.0
165.068899 124.0
166.06344 71.0
167.07743 47.0
168.077981 53.0
169.076442 60.0
170.079122 43.0
171.105273 16.0
172.108803 35.0
173.099804 8.0
174.129845 21.0
176.059976 29.0
177.063576 29.0
178.077877 69.0
178.962677 40.0
179.080657 28.0
180.082288 46.0
180.987869 16.0
181.080139 28.0
182.091309 41.0
184.09686 18.0
185.135071 11.0
188.062973 30.0
189.070533 56.0
191.001664 38.0
192.068635 21.0
192.980706 87.0
194.077746 15.0
194.096866 29.0
195.106757 31.0
196.087717 10.0
202.068311 14.0
203.074982 31.0
204.084152 25.0
205.158943 11.0
206.094513 20.0
207.030794 137.0
208.031354 24.0
208.109064 14.0
209.115065 14.0
211.073136 15.0
212.994587 17.0
215.066929 12.0
217.09157 17.0
218.09877 17.0
219.112641 36.0
221.118342 12.0
225.048334 20.0
228.091796 23.0
229.072257 8.0
233.106429 23.0
234.97075 8.0
242.095154 13.0
242.983085 10.0
254.108271 8.0
259.112594 8.0
265.015028 18.0
266.999409 35.0
268.98476 35.0
269.2242 8.0
279.188806 7.0
281.052977 71.0
283.046998 25.0
285.04638 14.0
339.991422 8.0
525.14162 15.0
816.423891 8.0
952.50643 9.0
967.540069 16.0
979.460426 7.0

