>compound 
>formula C22H30O14
>parentmass 541.1527766408801
>ionization [M + Na]+
>instrumentation Unknown (LCMS)
>source file:/Users/fanzhoukong/Documents/GitHub/Libgen/data/EAD_PFP/0_unknown_/spectrum.ms
>quality UNKNOWN

>ms2peaks
50.015972 125.0
51.02418 444.0
52.030438 72.0
53.039387 77.0
54.040735 25.0
55.054353 194.0
57.069149 36.0
57.937538 27.0
59.029796 7.0
60.985303 49.0
62.016261 13.0
63.023989 218.0
65.036925 523.0
65.040085 823.0
66.040934 66.0
66.047294 71.0
68.05261 26.0
68.996518 163.0
71.047445 18.0
73.006981 29.0
74.013179 54.0
75.022868 96.0
76.030866 88.0
77.041284 680.0
78.046252 124.0
79.053381 460.0
80.050309 115.0
81.064947 68.0
81.069357 145.0
85.05095 30.0
86.015828 23.0
87.022697 35.0
89.036453 126.0
90.044991 24.0
91.056409 2634.0
92.054678 114.0
93.060276 94.0
94.065634 98.0
95.081172 111.0
96.077201 32.0
97.944187 18.0
98.095487 11.0
102.04553 118.0
103.054418 108.0
104.053286 45.0
105.069015 116.0
106.067483 124.0
109.074838 46.0
110.998494 23.0
113.023311 31.0
114.046239 13.0
115.053817 375.0
117.057873 117.0
118.055222 37.0
120.082998 33.0
126.043258 42.0
126.046558 55.0
127.056006 82.0
128.059504 469.0
129.066952 66.0
130.06829 232.0
130.989399 66.0
131.067889 74.0
132.019537 14.0
132.075807 62.0
134.097583 26.0
135.101132 18.0
137.002488 28.0
138.123866 24.0
139.054525 60.0
140.048603 47.0
141.068321 94.0
141.92713 23.0
142.064879 30.0
142.074219 77.0
143.070798 38.0
144.079106 75.0
145.089764 62.0
145.972542 31.0
147.09197 22.0
149.070827 31.0
150.048405 38.0
152.057852 93.0
152.066302 137.0
153.06819 59.0
154.068498 66.0
156.078895 42.0
158.093691 23.0
163.001442 22.0
164.06001 51.0
165.067869 166.0
166.069967 104.0
167.034585 63.0
168.071843 40.0
168.078193 38.0
169.076642 15.0
170.08571 63.0
171.064468 17.0
172.052466 27.0
173.094844 11.0
175.144981 34.0
176.062779 49.0
177.054648 106.0
178.076756 103.0
179.083454 74.0
180.085112 41.0
181.079 47.0
181.09088 46.0
182.079599 74.0
182.098109 29.0
183.035237 19.0
184.035905 26.0
185.041963 72.0
187.01273 9.0
187.0556 23.0
188.061808 19.0
189.069366 75.0
190.068815 36.0
190.997783 36.0
191.001843 44.0
191.077663 34.0
192.081031 24.0
192.983599 76.0
193.985138 36.0
195.100086 22.0
196.112574 35.0
198.10543 11.0
199.035849 19.0
200.037717 21.0
200.066807 33.0
201.037905 41.0
201.071245 29.0
202.076813 78.0
203.050002 22.0
203.069532 70.0
203.137961 16.0
204.08708 21.0
205.159098 21.0
206.096046 22.0
207.030945 81.0
209.127971 20.0
211.094627 8.0
214.064042 28.0
214.161492 22.0
216.039319 151.0
217.055607 29.0
220.092671 18.0
221.11118 24.0
223.125956 14.0
225.044043 35.0
225.060223 42.0
226.076861 18.0
229.066436 9.0
229.106496 58.0
234.115697 30.0
236.113483 15.0
237.047692 8.0
239.089708 16.0
242.986211 32.0
243.212271 16.0
245.111897 15.0
248.98433 15.0
250.999427 26.0
254.198931 12.0
257.073046 27.0
258.123304 13.0
262.144387 38.0
265.013492 31.0
265.039002 56.0
266.02871 37.0
266.999449 18.0
268.010457 42.0
268.980005 16.0
271.114611 8.0
273.061748 12.0
275.014264 20.0
280.014406 10.0
281.051394 80.0
282.049132 30.0
283.05197 20.0
284.132508 8.0
286.150625 18.0
287.250353 8.0
289.06795 25.0
295.076489 11.0
295.113529 17.0
297.001346 24.0
299.059512 19.0
300.06665 20.0
304.019863 53.0
309.053754 15.0
315.070714 26.0
317.08404 45.0
317.09799 8.0
319.047757 142.0
323.05681 53.0
325.178456 8.0
328.983989 34.0
333.019042 26.0
339.114091 13.0
343.118024 8.0
347.079777 48.0
347.096197 26.0
349.082894 17.0
351.05875 8.0
353.047547 8.0
359.075456 10.0
360.084124 32.0
361.079332 110.0
361.090502 545.0
363.092539 26.0
364.078807 8.0
367.066282 15.0
377.088574 68.0
378.091752 49.0
379.103921 1481.0
389.046563 22.0
399.059215 16.0
400.059824 13.0
406.103693 8.0
407.099271 9.0
415.031867 28.0
417.033974 31.0
427.092516 8.0
437.107058 13.0
443.101798 18.0
451.124273 36.0
463.091632 24.0
493.133999 37.0
495.152636 9.0
509.111351 45.0
509.131251 67.0
511.146907 33.0
523.143066 22.0
526.138611 120.0
539.129188 80.0
540.139556 319.0
540.148716 1048.0
541.162324 4824.0

