>compound 
>formula C74H120O38
>parentmass 1639.7349804112598
>ionization [M + Na]+
>instrumentation Unknown (LCMS)
>source file:/Users/fanzhoukong/Documents/GitHub/Libgen/data/EAD_PFP/0_unknown_/spectrum.ms
>quality UNKNOWN

>ms2peaks
50.014244 146.0
51.022445 348.0
52.025165 46.0
53.037636 147.0
54.035386 20.0
55.054057 379.0
56.049237 46.0
57.032608 15.0
57.932788 13.0
58.995659 6.0
60.98275 27.0
61.00723 53.0
62.01371 44.0
63.021411 293.0
64.027841 42.0
65.039072 1069.0
66.042312 98.0
67.054023 285.0
68.994704 135.0
73.043656 13.0
74.013026 47.0
75.016787 56.0
75.027817 50.0
76.029017 99.0
77.038568 723.0
78.042658 231.0
79.051519 258.0
80.046689 55.0
80.051949 50.0
81.06837 220.0
82.06192 17.0
83.065091 28.0
83.085631 36.0
85.049062 39.0
87.020803 21.0
89.033624 24.0
89.036394 186.0
90.043084 65.0
91.054495 1561.0
92.053695 224.0
92.993166 20.0
93.052686 25.0
93.064966 150.0
94.064666 77.0
95.054417 45.0
95.079247 63.0
96.081027 22.0
97.043668 21.0
98.015948 17.0
98.098408 12.0
101.0367 21.0
102.04457 109.0
103.052461 129.0
104.050321 41.0
105.069062 177.0
106.065512 62.0
107.077823 44.0
108.076603 34.0
109.074914 32.0
110.998575 15.0
113.000486 49.0
115.042357 17.0
115.051817 394.0
116.054317 68.0
116.060647 98.0
117.061168 120.0
118.063848 108.0
119.084709 45.0
120.083119 48.0
121.1008 21.0
122.08921 17.0
125.002951 6.0
126.046722 49.0
127.055072 113.0
128.060793 312.0
129.069353 54.0
130.066234 88.0
130.992944 31.0
131.072564 20.0
132.016355 30.0
132.052385 23.0
133.081025 25.0
134.088716 29.0
135.013686 12.0
135.104766 22.0
138.052718 9.0
139.053608 56.0
140.047669 37.0
141.051109 14.0
141.068559 140.0
142.06862 43.0
142.99138 33.0
143.06987 23.0
143.0734 53.0
144.074651 37.0
144.080521 52.0
145.098291 29.0
145.966892 18.0
146.086452 33.0
147.964413 25.0
149.105793 34.0
151.057164 40.0
152.061765 115.0
153.063635 53.0
154.071236 64.0
155.061396 22.0
155.085796 53.0
156.081657 26.0
157.085617 35.0
158.087858 30.0
159.100708 65.0
160.093249 15.0
162.05015 19.0
163.05434 36.0
164.055341 41.0
165.068211 98.0
166.065282 27.0
167.074202 53.0
168.070943 51.0
169.084653 22.0
170.078414 22.0
170.093754 24.0
172.095245 30.0
172.110695 29.0
173.093955 15.0
174.126566 16.0
175.046876 12.0
175.146686 10.0
176.054087 21.0
176.143787 14.0
177.060277 12.0
178.070638 20.0
178.074558 79.0
179.081258 26.0
180.078959 51.0
180.988489 12.0
181.030659 21.0
181.087329 33.0
182.06284 22.0
182.09458 30.0
183.08074 29.0
184.037671 14.0
185.037071 17.0
186.123382 17.0
187.119032 16.0
189.068473 60.0
190.062524 27.0
190.074694 31.0
191.000954 21.0
191.071364 38.0
192.081515 20.0
192.984065 115.0
193.976056 15.0
194.111156 43.0
195.099216 12.0
196.089757 22.0
198.089398 18.0
199.123448 12.0
200.060379 14.0
201.073149 12.0
202.0676 13.0
202.08152 50.0
203.08821 30.0
204.075031 28.0
204.083421 20.0
205.100701 22.0
206.086752 11.0
206.096612 18.0
207.031472 180.0
208.109763 25.0
209.023693 30.0
209.073263 24.0
210.125604 17.0
210.994144 12.0
212.989575 16.0
214.087536 27.0
215.082006 23.0
218.108168 15.0
220.107819 32.0
223.10608 21.0
224.140301 26.0
225.040251 21.0
226.073072 25.0
229.081913 22.0
231.102834 13.0
232.118095 14.0
238.158208 12.0
242.188929 12.0
248.143292 9.0
249.110253 15.0
250.979964 16.0
258.135057 16.0
259.107098 12.0
261.977039 8.0
265.020621 26.0
266.019891 14.0
267.008232 15.0
281.048919 42.0
282.045039 20.0
282.056549 40.0
283.04785 21.0
284.04748 11.0
296.237946 14.0
301.195349 6.0
303.0684 20.0
345.11438 12.0
654.104763 6.0
741.243667 34.0
759.237076 15.0
759.258686 22.0
874.478963 27.0
875.475783 16.0
876.493484 15.0
919.458105 13.0
921.467266 19.0
1004.412617 12.0
1005.431237 19.0
1241.596574 28.0
1256.584492 10.0
1257.536152 21.0
1257.598772 29.0
1357.653762 20.0
1359.592723 7.0

