>compound 
>formula C12H12O5
>parentmass 237.07575448461
>ionization [M + H]+
>instrumentation Unknown (LCMS)
>source file:/Users/fanzhoukong/Documents/GitHub/Libgen/data/EAD_PFP/0_unknown_/spectrum.ms
>quality UNKNOWN

>ms2peaks
50.011865 249.0
51.020071 993.0
52.021377 11.0
52.028437 59.0
52.999592 5.0
53.036683 209.0
55.016794 580.0
55.931759 13.0
56.05712 7.0
56.962175 32.0
57.030226 32.0
57.067956 39.0
58.062452 5.0
59.049717 47.0
60.981889 10.0
61.009429 20.0
61.025499 9.0
62.014395 43.0
63.02135 300.0
64.025446 25.0
65.037462 3002.0
66.043888 88.0
67.053234 283.0
68.995555 222.0
69.032185 14.0
71.012667 37.0
71.083677 9.0
72.934958 6.0
74.014834 48.0
75.02202 134.0
76.029166 113.0
76.79216 7.0
77.040462 2601.0
78.044578 351.0
79.052593 1734.0
80.024999 8.0
80.048659 12.0
80.057429 14.0
81.048325 39.0
81.068615 166.0
83.012696 56.0
85.046658 6.0
86.013344 12.0
87.01839 14.0
88.030196 10.0
89.036761 304.0
90.046247 64.0
90.756931 9.0
91.055823 2719.0
92.057869 237.0
92.770773 5.0
93.068235 2018.0
94.0385 137.0
95.050096 308.0
95.948071 5.0
96.078622 5.0
97.022918 12.0
97.945663 5.0
98.973129 7.0
101.036261 39.0
102.045127 484.0
103.055023 3113.0
104.059909 47.0
105.050584 115.0
105.066654 934.0
106.04091 21.0
106.04999 14.0
106.06714 12.0
107.045006 16.0
107.068316 477.0
107.084536 410.0
108.055872 41.0
109.064318 200.0
110.032233 6.0
111.000299 7.0
111.043649 12.0
112.005775 5.0
112.99913 9.0
113.036621 15.0
114.040796 19.0
114.047067 23.0
115.053612 3825.0
116.061408 247.0
116.683862 6.0
117.071484 2623.0
118.04017 94.0
118.05932 29.0
119.049176 2684.0
120.056031 400.0
120.642815 7.0
120.657885 12.0
121.066057 6439.0
122.042433 11.0
122.068413 12.0
123.033599 14.0
123.043379 128.0
124.112785 6.0
126.046526 40.0
126.898131 6.0
127.053782 336.0
128.061728 162.0
129.035803 27.0
129.049154 22.0
129.068074 70.0
130.040389 66.0
131.049995 1003.0
132.058981 103.0
133.051517 6.0
133.065077 407.0
134.037562 75.0
134.056843 20.0
134.072713 19.0
135.079599 3510.0
136.049124 8.0
136.908589 6.0
137.05995 424.0
138.054946 5.0
139.007331 7.0
139.052392 6.0
139.069712 13.0
141.069673 9.0
141.922678 6.0
143.039385 15.0
143.049925 47.0
143.063995 21.0
144.055821 82.0
144.073441 9.0
145.065226 3223.0
146.039092 28.0
146.056852 33.0
146.072232 103.0
147.042348 2765.0
148.051414 5108.0
149.06514 7570.0
149.811214 6.0
149.907155 8.0
149.941935 7.0
150.030705 12.0
150.042715 11.0
150.070326 14.0
150.482238 7.0
151.039141 12.0
151.049991 14.0
151.075251 9.0
152.063027 43.0
153.053993 13.0
153.062483 16.0
154.065219 14.0
154.076169 6.0
155.051714 43.0
155.059024 51.0
155.072455 19.0
156.05481 26.0
156.0695 6.0
157.031676 7.0
157.066056 18.0
157.078346 18.0
158.036232 583.0
159.043988 3188.0
160.051233 453.0
161.060409 1309.0
162.069005 1498.0
162.530768 12.0
162.554498 14.0
162.751899 7.0
163.077001 7392.0
164.044207 14.0
164.076827 22.0
164.530139 6.0
165.054542 119.0
165.331544 5.0
166.067968 10.0
167.070584 18.0
168.08002 7.0
169.074676 6.0
169.083586 5.0
171.042017 70.0
172.050523 250.0
173.061989 3589.0
174.068645 905.0
175.04454 1817.0
175.05103 2218.0
176.045246 284.0
176.452329 8.0
176.465339 45.0
176.473149 62.0
176.499169 11.0
177.060562 11706.0
177.867057 5.0
178.055238 32.0
178.900693 12.0
187.0417 87.0
189.054052 714.0
190.048057 6.0
190.064268 180.0
191.071763 7395.0
193.049815 290.0
199.03958 235.0
201.056971 8061.0
201.926076 6.0
202.076447 5.0
203.037073 108.0
203.045453 71.0
203.069183 23.0
204.037749 13.0
205.049304 51.0
207.019316 9.0
207.027786 17.0
207.064436 20.0
207.69785 5.0
208.031172 4.0
209.079478 21.0
210.990439 6.0
214.372039 6.0
217.048174 221.0
219.066156 3590.0
220.070662 5.0
221.045437 15.0
221.055627 5.0
222.050073 11.0
225.03066 6.0
227.114863 6.0
230.09496 6.0
232.250212 5.0
235.053369 14.0
235.062409 125.0
235.798923 6.0
237.0808 4076.0

