>compound 
>formula C56H90O25
>parentmass 1185.56633938995
>ionization [M + Na]+
>instrumentation Unknown (LCMS)
>source file:/Users/fanzhoukong/Documents/GitHub/Libgen/data/EAD_PFP/0_unknown_/spectrum.ms
>quality UNKNOWN

>ms2peaks
105.067835 11.0
126.045248 26.0
127.055796 75.0
128.064834 103.0
129.070082 28.0
130.06472 74.0
131.058689 47.0
131.085609 50.0
133.012805 17.0
135.081562 11.0
139.054295 44.0
139.062385 40.0
140.136483 11.0
141.069231 107.0
142.063469 40.0
143.069388 34.0
144.076506 42.0
145.100144 35.0
147.07865 28.0
165.061289 32.0
165.068839 150.0
166.073467 57.0
167.074815 90.0
168.075363 45.0
170.10715 28.0
171.105188 29.0
172.092006 22.0
173.116464 29.0
174.998221 52.0
176.061179 62.0
177.066077 29.0
178.073856 64.0
179.073984 41.0
179.089724 38.0
180.078232 64.0
181.06156 34.0
181.08529 66.0
182.095159 29.0
185.040313 56.0
186.045112 17.0
187.05663 30.0
189.066356 27.0
189.070396 40.0
190.072555 40.0
191.001523 57.0
192.083431 51.0
192.983269 60.0
194.093967 50.0
195.076476 52.0
195.109326 35.0
197.134232 19.0
201.036185 54.0
202.076483 72.0
203.055242 35.0
203.143191 23.0
205.078778 57.0
206.092896 17.0
207.029175 83.0
208.035383 27.0
209.031291 30.0
210.100559 30.0
213.068714 11.0
215.08825 26.0
217.091327 76.0
218.097085 34.0
222.090778 23.0
225.165663 22.0
226.091221 37.0
228.092987 32.0
231.045192 19.0
231.106262 50.0
233.110618 11.0
235.128145 44.0
242.982761 24.0
244.083459 12.0
246.115546 23.0
248.142162 37.0
248.9839 29.0
250.967947 24.0
255.08016 34.0
261.982188 36.0
264.166904 12.0
265.017822 57.0
269.064725 24.0
271.081901 31.0
273.096908 12.0
278.120549 12.0
281.052554 181.0
282.053592 38.0
299.072542 48.0
300.0831 29.0
330.048617 12.0
331.101265 120.0
341.118888 11.0
343.055744 35.0
345.081831 12.0
347.095617 194.0
349.113434 97.0
359.269766 12.0
361.071272 75.0
361.706311 11.0
391.331199 15.0
403.121638 28.0
407.116361 12.0
435.109652 24.0
461.128196 19.0
464.32701 11.0
479.135154 35.0
507.129725 76.0
509.141441 12.0
521.14997 12.0
523.128726 67.0
525.845641 12.0
535.118815 36.0
539.367158 23.0
545.257407 12.0
549.15077 12.0
551.122207 26.0
553.157053 63.0
553.175483 357.0
593.373842 28.0
610.180813 22.0
611.180631 12.0
627.220092 16.0
635.391828 26.0
638.407943 12.0
641.195598 183.0
667.174612 12.0
669.190298 433.0
671.181075 90.0
671.226725 12.0
685.17629 13.0
687.177817 12.0
815.44815 48.0
829.438795 14.0
842.436262 20.0
843.443101 43.0
859.436052 77.0
859.447532 195.0
861.473399 13.0
890.384178 37.0
905.431091 82.0
905.463561 57.0
929.494829 11.0
931.502945 88.0
947.485887 13.0
951.4553 13.0
961.513752 246.0
964.465587 13.0
1005.517094 49.0
1021.506446 42.0
1023.520662 51.0
1037.470468 13.0
1037.505258 45.0
1039.519294 97.0
1050.495345 13.0
1051.492533 103.0
1067.489825 103.0
1094.528477 60.0
1095.546415 64.0
1096.542014 29.0
1097.508932 22.0
1112.524285 18.0
1112.550415 68.0
1114.524772 83.0
1114.567382 46.0
1125.543802 38.0
1127.529759 24.0
1137.518751 13.0
1139.554878 78.0
1141.543284 41.0
1142.569522 43.0
1154.541301 49.0
1155.556689 40.0
1156.565957 58.0
1167.529198 13.0
1167.562648 59.0
1169.545065 28.0
1183.55029 144.0
1184.564938 320.0
1185.566516 2400.0

