>compound 
>formula C15H28O3
>parentmass 257.21112576115
>ionization [M + H]+
>instrumentation Unknown (LCMS)
>source file:/Users/fanzhoukong/Documents/GitHub/Libgen/data/EAD_PFP/0_unknown_/spectrum.ms
>quality UNKNOWN

>ms2peaks
50.015378 130.0
51.021489 368.0
52.02914 50.0
53.037372 192.0
55.054504 1068.0
57.071537 241.0
59.0488 141.0
60.983972 82.0
63.020315 87.0
65.034788 24.0
65.040318 837.0
66.042769 48.0
67.05368 667.0
68.061772 16.0
69.070043 761.0
70.043924 21.0
70.068514 31.0
71.049386 1396.0
72.079477 10.0
73.064218 74.0
75.016401 29.0
76.024352 38.0
76.031192 48.0
77.037314 1290.0
78.042265 133.0
79.053726 907.0
80.056798 86.0
81.069729 1677.0
82.06328 35.0
83.085212 287.0
85.065794 146.0
87.022187 17.0
87.043207 14.0
88.031248 21.0
89.03964 158.0
90.042631 54.0
91.055912 1536.0
92.058874 148.0
93.069225 775.0
94.067996 36.0
95.086418 1046.0
95.952879 14.0
97.085651 99.0
97.102061 39.0
99.080323 91.0
101.052936 28.0
102.046037 56.0
103.054939 134.0
104.04881 19.0
104.0618 24.0
105.069541 817.0
106.068023 67.0
107.086414 1759.0
108.084225 25.0
109.104047 686.0
110.106048 21.0
111.081649 18.0
111.114689 110.0
111.123979 73.0
112.997852 39.0
113.041592 62.0
115.053355 259.0
116.053756 37.0
116.066416 22.0
117.068017 237.0
118.061159 23.0
118.071799 26.0
119.08627 1333.0
120.080401 34.0
120.090061 33.0
121.098063 176.0
121.103453 394.0
122.098364 21.0
123.116915 653.0
124.111317 16.0
125.097658 132.0
126.045019 17.0
127.111891 348.0
128.061292 197.0
129.067623 80.0
130.061155 40.0
130.070105 79.0
131.048406 41.0
131.068576 48.0
131.086516 66.0
132.022477 33.0
132.065247 11.0
133.101869 576.0
134.09489 31.0
134.10056 38.0
135.120061 3007.0
136.118293 56.0
137.132804 285.0
139.088777 53.0
139.110727 42.0
140.045868 21.0
141.062089 42.0
142.079641 20.0
143.093832 45.0
143.113762 52.0
144.086923 29.0
145.102335 61.0
145.967396 35.0
147.115337 262.0
147.967299 22.0
149.13382 248.0
150.044401 25.0
151.052873 24.0
151.090183 36.0
151.114273 147.0
152.059864 102.0
153.066575 54.0
153.089605 44.0
153.125966 133.0
154.065657 36.0
154.075397 41.0
154.131337 19.0
155.063128 36.0
156.062599 19.0
156.080939 32.0
157.077541 22.0
157.094721 44.0
157.114361 22.0
158.094532 20.0
159.117284 115.0
160.114835 25.0
161.117976 46.0
161.131646 753.0
162.134248 24.0
163.033589 20.0
163.137419 34.0
163.146179 146.0
164.05837 52.0
165.067471 82.0
165.082582 75.0
165.095152 55.0
167.068394 38.0
168.076546 36.0
169.074987 29.0
170.092998 20.0
171.07691 15.0
171.0923 41.0
172.111201 21.0
173.091902 13.0
173.134432 48.0
175.122575 17.0
175.151095 132.0
176.068906 15.0
177.060798 25.0
177.162498 58.0
178.076409 50.0
179.08965 87.0
179.10538 40.0
179.14734 58.0
180.088692 15.0
181.082593 27.0
182.084524 18.0
183.073316 29.0
183.125016 12.0
185.098908 13.0
185.133558 18.0
187.149051 15.0
189.067664 44.0
190.064415 18.0
190.079255 17.0
191.001486 36.0
191.077306 35.0
192.073888 30.0
192.088828 30.0
192.981879 41.0
193.101659 22.0
193.130239 38.0
193.179269 59.0
195.106582 28.0
197.116344 26.0
198.088566 13.0
199.119827 19.0
200.098328 37.0
201.07786 14.0
202.075091 25.0
203.180902 765.0
204.176344 34.0
205.157355 27.0
206.097136 15.0
207.034838 62.0
208.041059 26.0
209.10496 14.0
211.124193 45.0
211.148393 14.0
212.081794 20.0
219.103754 13.0
221.188067 224.0
224.110071 32.0
225.045222 18.0
227.079274 19.0
228.088636 15.0
229.104697 22.0
229.134347 27.0
239.122741 48.0
248.987134 14.0
251.000686 15.0
257.079045 38.0
257.112035 105.0
257.129305 155.0
257.146575 61.0

