>compound 
>formula C18H30O8
>parentmass 392.22788892346006
>ionization [M + H3N + H]+
>instrumentation Unknown (LCMS)
>source file:/Users/fanzhoukong/Documents/GitHub/Libgen/data/EAD_PFP/0_unknown_/spectrum.ms
>quality UNKNOWN

>ms2peaks
50.014658 150.0
51.022869 448.0
53.038062 508.0
54.875084 26.0
55.032674 335.0
55.037034 397.0
55.055204 1046.0
55.720105 19.0
56.022526 24.0
57.070767 3417.0
59.04952 70.0
60.021561 184.0
61.029082 2565.0
63.023395 30.0
65.039498 435.0
66.046709 144.0
67.05605 3013.0
68.063352 82.0
69.054543 2363.0
69.062683 862.0
69.066753 763.0
70.041424 26.0
71.030356 55.0
71.047696 305.0
71.052646 309.0
71.084856 135.0
73.029008 925.0
74.03874 28.0
75.015511 17.0
77.040714 3196.0
78.050875 199.0
78.789986 38.0
79.058036 5147.0
79.660187 20.0
80.053248 55.0
80.060268 179.0
80.393688 20.0
81.070569 4411.0
82.0375 66.0
82.07566 42.0
83.050342 3595.0
85.033234 4914.0
85.991656 19.0
87.046817 279.0
89.02573 152.0
91.053992 5091.0
92.061644 281.0
93.071075 6440.0
93.721466 25.0
94.059396 26.0
94.078397 100.0
95.086368 1898.0
96.042099 22.0
96.057459 47.0
97.03541 1235.0
97.04409 1629.0
99.046143 664.0
100.048954 22.0
101.024326 32.0
101.065686 20.0
102.033117 51.0
103.040959 138.0
103.052889 172.0
104.05375 28.0
105.071501 1746.0
106.062913 19.0
106.081073 114.0
107.050884 112.0
107.074194 3981.0
108.058705 28.0
108.083145 30.0
109.031357 440.0
109.049767 713.0
109.062037 157.0
110.076178 29.0
111.053709 118.0
111.084689 138.0
113.001962 18.0
113.024872 34.0
113.044662 28.0
113.060282 181.0
113.090492 19.0
114.058273 26.0
115.044885 623.0
115.055395 486.0
116.063186 67.0
116.711037 17.0
117.060537 80.0
117.070077 1145.0
118.077059 31.0
119.08728 1996.0
120.052421 18.0
120.094291 35.0
121.066733 770.0
121.079673 1160.0
121.083983 934.0
122.062574 22.0
122.074484 26.0
123.082065 1032.0
124.046867 22.0
124.052317 55.0
124.645487 21.0
125.064728 6918.0
126.057049 19.0
126.7035 25.0
127.042251 2811.0
128.063442 136.0
129.061993 151.0
130.068905 38.0
131.086456 798.0
132.094457 33.0
133.101799 4391.0
134.11069 524.0
134.666041 85.0
134.689901 81.0
135.118861 9401.0
136.125073 54.0
136.635313 18.0
137.070784 76.0
138.041655 85.0
138.069275 61.0
139.078287 6690.0
141.093429 4801.0
143.076172 59.0
143.087892 159.0
144.069203 132.0
144.091543 43.0
145.051515 5200.0
146.070306 35.0
147.116437 2906.0
148.058989 33.0
148.095939 47.0
148.64006 57.0
149.13613 7382.0
150.139132 101.0
151.067233 98.0
151.078063 957.0
152.029584 26.0
152.058574 53.0
153.087095 38.0
153.117406 7102.0
154.061937 45.0
154.085037 32.0
154.350257 15.0
155.083788 290.0
155.787269 63.0
156.094319 30.0
157.104471 551.0
158.119092 40.0
158.594923 27.0
158.759053 19.0
159.119674 4038.0
160.061445 31.0
160.638276 21.0
161.088036 58.0
161.106706 235.0
161.119136 315.0
161.132806 380.0
161.146476 51.0
162.064297 26.0
162.078017 488.0
163.073529 961.0
164.06455 25.0
165.092562 456.0
165.111442 595.0
166.074543 24.0
166.605194 36.0
167.077164 69.0
167.086014 62.0
167.093614 104.0
167.110084 43.0
168.058676 27.0
168.099306 24.0
168.650996 48.0
169.078717 33.0
169.097827 680.0
170.101858 18.0
170.846259 21.0
171.08193 29.0
171.10116 44.0
171.11654 707.0
171.76045 21.0
172.090561 21.0
172.599822 17.0
173.100832 207.0
173.115002 544.0
173.127892 328.0
175.105635 58.0
175.113405 1130.0
176.090916 24.0
176.116896 30.0
176.534467 39.0
177.131088 10271.0
178.010949 40.0
178.068459 25.0
178.085449 29.0
178.142979 37.0
179.09611 74.0
179.10529 140.0
180.087292 1805.0
181.091733 386.0
182.088384 19.0
182.106894 38.0
183.105036 100.0
183.114296 485.0
184.095257 26.0
185.098818 95.0
185.114808 269.0
185.132128 129.0
185.148128 46.0
187.116781 435.0
187.130171 60.0
189.126834 739.0
191.105646 118.0
191.117836 140.0
191.144916 55.0
193.094749 37.0
193.124699 873.0
194.10749 49.0
194.13207 79.0
194.14298 50.0
194.499401 59.0
194.508971 108.0
194.850691 23.0
195.142052 15002.0
196.249323 105.0
196.323453 61.0
196.353653 56.0
196.926484 86.0
197.103864 61.0
197.127244 255.0
198.792237 53.0
199.086537 32.0
199.108657 297.0
199.436407 31.0
201.13054 460.0
201.14998 54.0
203.094232 45.0
203.106792 166.0
203.126352 220.0
203.152872 55.0
205.122175 808.0
207.126358 150.0
207.139038 830.0
209.08076 33.0
209.12044 28.0
209.654851 30.0
211.114103 59.0
211.122653 73.0
211.136893 77.0
211.146853 77.0
212.158745 26.0
213.117236 94.0
213.142996 497.0
215.112598 55.0
215.125528 183.0
215.161459 43.0
217.097041 42.0
217.118691 264.0
217.123031 1247.0
219.136994 354.0
221.119477 79.0
221.128217 134.0
223.124059 27.0
223.129919 282.0
223.143089 166.0
225.130332 250.0
225.153842 43.0
227.119015 56.0
227.144095 72.0
229.129767 123.0
229.146087 55.0
231.13899 259.0
233.119573 158.0
233.131533 152.0
233.142003 104.0
235.134125 477.0
236.110057 18.0
237.118138 27.0
237.130228 53.0
237.143788 59.0
239.131711 50.0
239.140791 117.0
241.115753 38.0
241.121823 44.0
243.140056 327.0
245.109939 63.0
245.131409 97.0
245.157489 47.0
247.132431 87.0
247.183261 31.0
249.152424 154.0
251.130947 47.0
252.774529 32.0
253.142229 71.0
255.136502 49.0
257.154305 154.0
259.134317 54.0
261.12986 31.0
261.14726 335.0
263.131423 110.0
263.145733 26.0
265.143845 63.0
267.125508 27.0
267.144728 99.0
273.152006 142.0
275.134089 23.0
275.164949 108.0
277.141231 23.0
279.157324 144.0
281.142947 21.0
285.151862 284.0
285.189892 27.0
291.15825 76.0
293.175953 39.0
303.159216 252.0
309.170484 17.0
321.1734 394.0
339.160604 28.0
339.169634 78.0
357.200789 35.0
375.201603 24.0
392.213745 91.0

