>compound 
>formula C27H22O12
>parentmass 556.1449471439
>ionization [M + H3N + H]+
>instrumentation Unknown (LCMS)
>source file:/Users/fanzhoukong/Documents/GitHub/Libgen/data/EAD_PFP/0_unknown_/spectrum.ms
>quality UNKNOWN

>ms2peaks
107.052736 27.0
115.054125 235.0
117.034873 140.0
118.042761 195.0
119.04962 66.0
121.029827 28.0
123.044844 414.0
126.05566 47.0
127.051899 54.0
128.063137 26.0
131.049123 68.0
137.028015 72.0
139.040982 60.0
141.074419 91.0
143.052337 54.0
145.026334 101.0
145.033414 229.0
146.037943 226.0
147.045921 819.0
148.04904 75.0
149.031639 51.0
149.039999 174.0
150.046287 683.0
151.054736 1852.0
152.064164 2214.0
153.070893 851.0
154.077292 138.0
155.05039 77.0
155.08333 86.0
156.076719 46.0
157.027858 89.0
157.058558 39.0
158.036086 219.0
159.047525 1865.0
160.053523 243.0
161.035352 44.0
161.057722 235.0
162.038861 190.0
163.051759 3124.0
164.062798 2196.0
165.074416 5407.0
166.075285 319.0
167.079174 365.0
168.058132 415.0
169.065441 521.0
170.07447 62.0
171.045508 61.0
171.081398 43.0
172.014187 97.0
172.055287 34.0
173.025516 116.0
174.035954 863.0
175.050623 1148.0
176.064331 6796.0
177.07317 1852.0
178.078329 199.0
179.036527 576.0
180.045926 691.0
181.055535 6143.0
182.071923 248.0
183.079232 126.0
184.05608 94.0
185.027549 129.0
185.062199 46.0
186.030968 91.0
187.042456 5046.0
188.027135 53.0
188.049955 52.0
189.069614 149.0
190.069042 64.0
191.035931 105.0
191.071131 55.0
192.056839 670.0
193.066858 1496.0
194.075437 664.0
195.078425 579.0
196.053844 385.0
197.061913 1010.0
198.067061 56.0
199.07894 59.0
200.015778 42.0
200.050418 65.0
201.085377 34.0
202.025546 40.0
203.039054 2127.0
204.049543 917.0
205.066722 7436.0
206.06957 47.0
206.07378 119.0
207.046649 253.0
207.066399 105.0
207.079089 70.0
208.050087 70.0
209.061606 425.0
210.069885 750.0
211.074923 769.0
212.082332 189.0
213.022111 487.0
213.032121 199.0
214.059949 33.0
215.068718 97.0
217.061605 34.0
217.067395 65.0
218.021004 31.0
219.047752 48.0
220.049291 233.0
221.06331 6761.0
222.069448 1079.0
223.079327 5827.0
224.048975 215.0
225.056014 2289.0
226.060883 209.0
226.068233 120.0
227.072401 154.0
230.018007 116.0
231.030906 1000.0
232.053464 147.0
232.063924 84.0
233.063353 8059.0
234.070942 301.0
235.04463 48.0
235.07918 213.0
236.042939 28.0
237.061448 772.0
238.062496 736.0
239.071725 2084.0
240.081563 443.0
241.060082 123.0
242.061891 349.0
243.068869 153.0
244.073338 46.0
245.063007 23.0
247.048334 21.0
248.050182 242.0
249.055601 4448.0
250.06616 1715.0
251.069438 2985.0
251.077198 8499.0
252.032737 85.0
252.049837 238.0
252.079397 54.0
253.055536 9866.0
254.064794 190.0
255.065093 1343.0
256.067371 36.0
257.08262 258.0
258.088849 36.0
259.043437 85.0
260.056646 31.0
260.200416 69.0
261.056005 2782.0
262.065223 66.0
263.068452 93.0
265.047119 262.0
266.062408 1364.0
267.065246 3955.0
268.076355 2045.0
269.082974 5234.0
270.078582 40.0
270.088252 53.0
271.059931 86.0
276.043684 124.0
277.056993 3276.0
278.059071 1173.0
279.07277 11941.0
280.044048 92.0
280.075208 48.0
281.046577 1272.0
282.050916 39.0
282.055856 111.0
283.060314 120.0
284.069893 208.0
285.072972 338.0
292.045342 71.0
293.047331 91.0
294.061089 1437.0
295.066518 9250.0
296.068596 802.0
297.077445 9374.0
298.081224 111.0
299.054522 30.0
304.033646 40.0
305.049084 190.0
308.07126 90.0
309.077949 32.0
312.054194 199.0
312.066314 1384.0
313.072573 6328.0
314.078702 714.0
315.08993 57.0
321.036942 49.0
322.048751 125.0
323.060379 2953.0
325.088417 32.0
327.092694 57.0
336.481841 35.0
339.933616 40.0
340.054646 301.0
340.070916 322.0
340.792075 30.0
341.072465 19589.0
342.651872 65.0
342.680892 34.0
343.103562 56.0
343.657211 32.0
346.961197 39.0
349.095744 29.0
349.723823 67.0
358.070031 89.0
415.091653 28.0
458.115034 36.0
465.121674 31.0
475.11083 55.0
476.140579 39.0
492.109677 79.0
493.114196 167.0
494.121884 149.0
494.152394 46.0
520.097799 63.0
521.114767 36.0
538.233084 89.0
553.086273 11.0
556.237759 448.0

