>compound 
>formula C6H11NO3S
>parentmass 195.07978539207
>ionization [M + H3N + H]+
>instrumentation Unknown (LCMS)
>source file:/Users/fanzhoukong/Documents/GitHub/Libgen/data/EAD_PFP/0_unknown_/spectrum.ms
>quality UNKNOWN

>ms2peaks
51.474331 20.0
52.01905 111.0
53.014327 304.0
54.034885 1529.0
55.042633 2531.0
55.870621 17.0
56.05236 9115.0
56.549989 5.0
56.586089 5.0
56.790388 6.0
56.955878 4.0
56.966228 16.0
57.046108 1614.0
58.029185 10.0
58.032915 8.0
58.066495 16.0
58.989053 93.0
59.056033 11.0
59.060553 20.0
59.068833 7.0
60.48208 8.0
61.010428 13.0
62.993534 6.0
64.000511 7.0
66.036016 125.0
67.031634 1704.0
68.032271 27.0
68.040351 1591.0
68.81179 9.0
68.82723 46.0
68.838609 17.0
69.050089 12315.0
69.514048 9.0
69.543458 16.0
69.646428 15.0
69.661138 15.0
69.698757 17.0
69.765837 19.0
69.778927 7.0
69.844407 12.0
69.877977 5.0
69.883707 7.0
70.030377 528.0
70.315946 4.0
70.336486 5.0
70.439226 6.0
70.640795 5.0
70.768475 7.0
70.879775 5.0
71.044814 6.0
71.052244 17.0
71.057204 14.0
71.063804 17.0
71.219974 5.0
71.749222 5.0
72.044092 8.0
72.275431 5.0
73.047009 8.0
75.005735 8.0
77.0007 17.0
77.04025 13.0
78.033957 7.0
79.018365 4.0
79.028815 31.0
79.029685 90.0
80.012443 37.0
80.034353 23.0
80.043113 6.0
81.04712 4265.0
81.798478 6.0
82.046748 5.0
82.054728 2848.0
82.777756 13.0
82.790236 16.0
82.792016 18.0
82.800926 14.0
83.066775 11608.0
83.571094 21.0
83.704584 5.0
83.733274 7.0
83.746714 8.0
83.814864 5.0
83.851633 10.0
84.039223 8.0
84.048203 29.0
84.227023 5.0
84.243202 5.0
84.986621 5.0
85.040811 8.0
85.28399 5.0
86.274748 5.0
88.511052 79.0
90.484068 51.0
91.057126 16.0
91.715465 6.0
93.046821 682.0
94.032159 20.0
94.043559 242.0
95.031277 411.0
95.040827 577.0
95.061837 31.0
96.028004 7.0
96.034724 83.0
96.047204 87.0
96.066404 103.0
96.731013 6.0
97.042472 2757.0
97.511071 22.0
97.518801 68.0
97.76855 5.0
97.990489 7.0
98.038009 6.0
98.050619 18.0
98.073909 15.0
99.038637 14.0
99.046437 25.0
99.483696 22.0
99.711485 4.0
101.579711 3.0
102.955738 10.0
103.059137 5.0
104.030045 5.0
104.034035 10.0
104.737643 4.0
105.035623 8.0
105.043653 10.0
105.356132 4.0
106.03796 8.0
106.06419 4.0
106.505529 7.0
106.520699 21.0
107.009588 10.0
107.025808 68.0
107.034928 33.0
107.045058 17.0
107.061278 20.0
107.568686 5.0
108.059975 1378.0
108.494224 9.0
108.686134 10.0
109.044903 9377.0
109.585692 8.0
109.700581 31.0
109.715971 60.0
109.729311 42.0
110.07745 18828.0
110.686749 14.0
111.059118 5263.0
111.413507 17.0
111.972566 5.0
115.776527 4.0
117.021544 43.0
118.040021 4.0
120.050487 24.0
120.056927 170.0
121.041074 19.0
121.049694 44.0
121.061544 15.0
122.073602 762.0
122.62948 7.0
122.63924 13.0
122.66637 5.0
123.046399 10510.0
123.952157 5.0
124.051427 18.0
124.066697 92.0
124.089617 172.0
125.066014 7.0
125.330174 6.0
126.028642 19.0
126.067132 8.0
127.518769 23.0
127.527619 5.0
128.061407 6.0
132.039448 5.0
132.057468 10.0
133.061265 14.0
134.060943 20.0
134.068893 23.0
134.074553 43.0
135.06776 216.0
135.08258 18.0
136.060088 523.0
136.076078 150.0
136.520957 7.0
137.043406 11.0
137.054876 37.0
137.060616 76.0
137.082406 9.0
137.409475 5.0
137.605924 102.0
137.609364 145.0
137.618554 224.0
137.630044 135.0
138.071713 22936.0
139.062281 9.0
139.24717 5.0
139.41253 9.0
147.039322 5.0
148.025729 9.0
148.038829 42.0
149.084787 126.0
150.032415 36.0
150.039625 19.0
150.049215 13.0
150.068434 6.0
151.098622 1811.0
152.04175 14.0
152.05021 15.0
152.07074 48.0
152.07799 51.0
152.617268 6.0
153.066587 11.0
154.063245 28.0
155.087532 5.0
156.02955 7.0
156.08216 5.0
158.096995 6.0
161.049578 47.0
162.045646 5.0
162.055626 23.0
163.064823 2749.0
164.065861 33.0
165.081288 514.0
166.061966 29.0
167.070874 7.0
168.077771 49.0
169.105509 5.0
172.109862 7.0
174.039117 4.0
177.07377 13.0
177.08288 45.0
178.068467 7.0
179.060735 463.0
180.068872 1455.0
181.07328 69.0
182.479877 3.0
187.531075 4.0
188.062673 6.0
190.071038 5.0
191.004066 9.0
192.080554 7.0
193.075661 1082.0
194.082899 137.0
194.402388 15.0
194.432448 68.0
194.444728 130.0
194.457008 84.0
194.492528 16.0
194.620977 10.0
194.852017 22.0
195.092746 19522.0

