>compound 
>formula C35H46O19
>parentmass 793.25255025441
>ionization [M + Na]+
>instrumentation Unknown (LCMS)
>source file:/Users/fanzhoukong/Documents/GitHub/Libgen/data/EAD_PFP/0_unknown_/spectrum.ms
>quality UNKNOWN

>ms2peaks
50.015942 147.0
51.024151 514.0
52.03182 71.0
53.037928 157.0
54.029907 36.0
54.045747 24.0
55.053606 405.0
56.048765 38.0
57.069123 26.0
58.993651 14.0
59.97585 6.0
61.005938 6.0
62.014707 38.0
63.023966 395.0
64.029615 29.0
65.040063 909.0
66.044092 105.0
67.055011 287.0
68.02109 31.0
68.995699 204.0
69.997727 20.0
70.078067 26.0
73.047154 12.0
74.016542 53.0
75.005891 20.0
76.03085 95.0
77.040409 1254.0
78.044507 199.0
79.055106 611.0
80.054685 167.0
81.068474 192.0
82.067342 44.0
83.083931 51.0
85.050039 26.0
87.020866 25.0
88.031745 16.0
89.039214 285.0
90.040343 22.0
90.046843 66.0
91.057341 1425.0
92.05749 219.0
93.060269 107.0
94.069438 84.0
95.072576 76.0
95.085946 99.0
96.078155 25.0
97.010864 18.0
98.017883 29.0
99.99365 15.0
100.11222 17.0
101.041599 26.0
102.048498 79.0
103.054416 284.0
104.048285 44.0
105.068014 218.0
106.067483 88.0
107.079791 71.0
108.07655 29.0
109.089169 28.0
110.997467 49.0
113.001444 71.0
114.047293 6.0
115.054872 687.0
116.05527 32.0
117.066359 189.0
118.065868 31.0
119.071767 44.0
119.084597 48.0
121.079104 19.0
122.092323 25.0
126.046568 32.0
127.051597 109.0
128.062856 302.0
129.064724 115.0
130.061593 70.0
130.069413 111.0
130.993892 33.0
131.073512 64.0
132.074701 32.0
132.083701 71.0
133.015299 18.0
133.072929 28.0
133.095529 12.0
134.097608 36.0
135.101147 18.0
137.001344 32.0
139.054532 48.0
140.055571 17.0
141.068329 80.0
142.070718 24.0
143.068477 44.0
143.080187 48.0
144.080286 49.0
145.066175 27.0
145.080334 37.0
145.101574 23.0
145.971363 27.0
146.090933 46.0
147.100302 24.0
147.966531 12.0
149.135429 28.0
151.052067 21.0
152.061476 106.0
153.068205 97.0
154.072153 38.0
155.074522 35.0
156.078901 41.0
157.08776 38.0
158.096168 41.0
160.082996 13.0
161.093515 19.0
163.050232 17.0
164.061261 24.0
165.07039 259.0
166.062409 20.0
166.073779 61.0
167.077647 82.0
167.083977 40.0
168.069316 22.0
168.083276 57.0
169.044815 15.0
169.076655 41.0
170.099784 34.0
171.096522 24.0
172.069171 15.0
172.110311 22.0
173.09229 25.0
175.148897 29.0
176.064086 30.0
177.062485 22.0
178.075474 52.0
179.083482 52.0
180.085121 54.0
180.098261 22.0
181.0764 20.0
181.0988 34.0
182.086219 20.0
182.184059 35.0
183.096227 33.0
184.110346 35.0
185.059305 18.0
187.044893 20.0
188.067201 17.0
189.06265 31.0
189.07343 103.0
189.12866 20.0
190.074239 37.0
191.001858 60.0
191.077678 24.0
192.085126 30.0
192.984985 102.0
193.088425 21.0
193.978324 32.0
194.960553 18.0
196.096141 14.0
197.10296 14.0
199.139528 17.0
200.057136 10.0
201.071275 14.0
202.075454 59.0
203.091903 34.0
203.140763 40.0
204.080112 14.0
204.117901 17.0
205.08616 17.0
205.16052 42.0
205.16752 22.0
206.091849 23.0
207.033758 158.0
208.034337 47.0
208.107807 18.0
209.018915 18.0
210.992173 13.0
212.099262 12.0
213.13916 23.0
215.084318 40.0
216.082537 13.0
217.090285 22.0
218.132194 13.0
220.111592 14.0
223.133288 14.0
225.061706 12.0
227.085513 23.0
229.094651 10.0
230.102539 14.0
231.096248 12.0
232.111507 14.0
236.140602 13.0
241.195296 13.0
242.980133 14.0
245.127251 17.0
248.988976 33.0
250.966864 13.0
255.099378 13.0
261.079611 8.0
262.16024 17.0
265.019876 69.0
266.022355 18.0
267.004284 23.0
267.020304 24.0
267.994452 23.0
269.002511 20.0
272.144687 14.0
281.039906 39.0
281.049766 77.0
282.052455 30.0
283.053614 17.0
299.056124 14.0
302.28696 11.0
361.364217 16.0
395.195835 14.0
405.115223 27.0
421.112953 33.0
434.126027 12.0
435.128776 31.0
436.132705 40.0
437.148023 18.0
469.134044 13.0
493.136144 22.0
551.148402 6.0
598.185694 17.0
629.170646 21.0
630.195665 19.0
631.194503 17.0
644.171787 21.0
645.174166 30.0
646.197235 26.0
647.191193 27.0
659.193739 13.0
660.200147 31.0
661.212416 23.0
674.1853 15.0
675.192929 44.0
688.196203 14.0
689.206582 115.0
700.198088 6.0
703.223834 15.0
750.230066 6.0
761.225592 52.0
763.25135 14.0
775.238645 27.0
777.228323 13.0
778.225451 22.0
791.230195 79.0
792.244544 596.0
793.256803 3757.0

