>compound 
>formula C10H14N2O5
>parentmass 243.097763061523
>ionization [M + H]+
>instrumentation Unknown (LCMS)
>source file:/Users/fanzhoukong/Documents/GitHub/Libgen/data/NIST_MONA/0_unknown_/spectrum.ms
>quality UNKNOWN

>ms2peaks
39.023 0.35
43.0169 2.47
43.0529 3.0
45.0331 2.36
53.0375 0.42
54.0332 0.81
56.0493 1.5
57.0341 0.85
69.0337 2.86
71.0488 2.9
73.0282 3.99
81.0322 1.08
81.0666 0.48
82.027 1.2
84.0417 0.33
99.0439 6.28
104.9015 0.3
109.0403 2.19
110.0233 7.62
110.0521 0.32
117.0549 9.21
126.3105 0.25
127.0506 100.0
127.2635 0.49
127.3027 0.28
127.3448 0.27
127.3728 0.41
127.6203 0.27
128.1919 0.23
192.9356 0.53
243.0968 0.32

