>compound 
>formula C20H24O11
>parentmass 441.1391425887901
>ionization [M + H]+
>instrumentation Unknown (LCMS)
>source file:/Users/fanzhoukong/Documents/GitHub/Libgen/data/EAD_PFP/0_unknown_/spectrum.ms
>quality UNKNOWN

>ms2peaks
126.045596 67.0
127.055045 229.0
128.065184 668.0
129.068202 228.0
130.067301 35.0
131.05234 218.0
132.059079 114.0
133.028988 62.0
133.059508 228.0
133.069668 123.0
134.037627 78.0
135.039786 64.0
135.045496 277.0
136.012585 71.0
137.018664 94.0
139.052371 181.0
141.064969 191.0
141.073119 166.0
142.070858 77.0
143.048687 48.0
143.066257 54.0
144.058086 53.0
145.027375 38.0
145.065125 110.0
147.055283 43.0
157.078082 56.0
159.044939 50.0
160.090568 36.0
161.058837 384.0
163.040365 696.0
164.055134 107.0
165.018923 320.0
165.034023 583.0
165.056673 433.0
166.076422 93.0
167.041061 165.0
167.070181 70.0
168.083419 88.0
169.078068 252.0
170.107577 52.0
171.062056 258.0
172.069315 48.0
173.060204 569.0
174.034543 98.0
174.069443 128.0
175.051802 493.0
175.060882 1489.0
176.012251 45.0
176.053831 159.0
177.057409 2036.0
178.078228 81.0
179.035097 469.0
179.080987 229.0
180.040566 37.0
180.077386 76.0
181.059395 92.0
181.080475 160.0
182.104864 47.0
183.047323 168.0
183.080443 160.0
184.058652 67.0
185.058101 409.0
186.06695 59.0
186.09769 57.0
187.051738 429.0
187.075848 286.0
188.052567 97.0
189.056036 729.0
189.064126 287.0
190.098675 455.0
191.045314 491.0
191.056144 491.0
191.072394 251.0
192.052683 72.0
192.097483 80.0
193.047702 493.0
194.097191 60.0
195.02909 1886.0
196.082549 24.0
197.048077 91.0
197.057707 71.0
197.082457 154.0
197.097577 159.0
198.076626 131.0
198.105586 61.0
199.045665 89.0
199.065035 191.0
199.078845 91.0
199.112025 187.0
201.058893 908.0
202.025452 89.0
202.065842 116.0
203.073891 1645.0
204.09005 109.0
205.054029 1814.0
206.054028 53.0
207.031086 377.0
207.053636 391.0
209.030364 146.0
209.038864 125.0
209.055884 218.0
209.092704 77.0
210.098223 51.0
211.050662 178.0
211.076282 267.0
211.104742 102.0
213.06064 593.0
213.0921 492.0
213.11069 437.0
214.061319 48.0
215.038498 75.0
215.060038 144.0
215.071528 236.0
216.040917 33.0
217.044225 169.0
217.048545 163.0
217.060095 443.0
218.055654 43.0
219.065083 1215.0
220.037602 234.0
221.048701 431.0
223.063189 305.0
223.090989 226.0
224.037208 33.0
225.047147 101.0
225.119157 83.0
227.091554 125.0
228.069863 73.0
229.053262 1066.0
230.052131 59.0
231.06957 2126.0
232.039999 40.0
233.043878 2699.0
235.062616 300.0
237.043303 837.0
239.080781 155.0
239.105011 362.0
241.113279 211.0
241.122409 890.0
242.057308 41.0
243.068847 126.0
243.100917 78.0
243.137567 66.0
245.049175 258.0
245.066045 198.0
245.087514 338.0
246.053113 102.0
247.049862 422.0
247.062172 3466.0
248.070231 105.0
248.101081 66.0
249.06641 333.0
249.07879 524.0
250.042899 48.0
251.053898 2644.0
253.124096 71.0
255.071343 40.0
255.101083 144.0
257.046501 2167.0
258.05895 39.0
259.114409 414.0
259.136469 1087.0
261.046527 1061.0
262.090596 51.0
263.060505 569.0
263.071615 474.0
265.072652 2048.0
267.06526 60.0
267.10527 302.0
269.095838 174.0
269.116748 646.0
271.055096 57.0
271.093796 113.0
271.100266 168.0
271.111556 83.0
273.076484 133.0
273.112104 74.0
275.056651 4190.0
276.0958 39.0
277.076569 284.0
277.091249 369.0
277.115699 257.0
279.054777 1469.0
281.063045 416.0
282.045994 40.0
283.057063 66.0
283.086733 170.0
285.10443 126.0
285.11438 960.0
286.119289 39.0
287.129328 1194.0
289.054766 98.0
289.083086 224.0
289.113056 183.0
291.056844 123.0
291.080224 108.0
291.095264 77.0
293.070852 2702.0
295.083389 178.0
295.095169 303.0
297.080857 462.0
297.112927 261.0
299.093545 118.0
301.060313 27.0
301.084113 126.0
303.12565 1181.0
305.132998 286.0
305.141548 681.0
307.045686 2851.0
309.065944 182.0
311.072112 1268.0
313.109039 1101.0
315.121297 574.0
317.071985 85.0
317.101615 153.0
319.081163 69.0
319.112663 94.0
321.068621 645.0
321.098441 2892.0
321.114241 1186.0
323.065749 176.0
323.088638 213.0
324.045487 75.0
324.310037 40.0
325.058486 6416.0
331.11802 2522.0
333.135377 653.0
335.078185 152.0
335.097905 79.0
337.046443 67.0
337.057223 56.0
337.096803 113.0
337.129153 65.0
339.078151 1263.0
341.101499 320.0
343.094596 55.0
345.089834 46.0
347.114582 40.0
349.13063 4768.0
351.091938 64.0
351.139668 114.0
353.043985 1071.0
353.055035 6124.0
357.084691 84.0
359.114569 2006.0
361.135317 218.0
363.068424 71.0
365.085262 56.0
366.136071 1448.0
367.14151 3262.0
369.099968 97.0
370.056667 95.0
371.065546 216.0
375.90453 29.0
377.126789 3049.0
379.104047 72.0
379.146007 85.0
385.07841 1325.0
387.103398 195.0
387.111088 392.0
394.12951 103.0
395.137569 4736.0
405.125228 3338.0
413.134249 43.0
413.150179 64.0
423.133848 1613.0
440.135409 75.0
441.147128 15892.0

