>compound 
>formula C7H8N4O2
>parentmass 203.0539465147
>ionization [M + Na]+
>instrumentation Unknown (LCMS)
>source file:/Users/fanzhoukong/Documents/GitHub/Libgen/data/EAD_PFP/0_unknown_/spectrum.ms
>quality UNKNOWN

>ms2peaks
50.016812 185.0
51.022243 634.0
52.029194 121.0
53.036705 186.0
54.040916 36.0
55.054557 364.0
56.051927 45.0
56.059997 23.0
57.011648 12.0
57.071578 73.0
58.063839 32.0
61.004672 35.0
61.010032 40.0
62.014213 45.0
63.022694 409.0
64.028344 18.0
65.040365 1392.0
66.040426 63.0
67.041697 29.0
67.055327 321.0
68.025448 53.0
68.993589 160.0
69.069279 59.0
70.06529 14.0
72.935362 30.0
74.016063 53.0
75.018994 64.0
76.032085 118.0
77.041656 1749.0
78.044907 316.0
79.055517 655.0
80.051588 253.0
81.071539 224.0
82.07309 32.0
83.082581 36.0
83.085261 41.0
84.080272 49.0
84.959263 16.0
85.008933 15.0
87.023154 25.0
89.037846 185.0
90.045467 44.0
91.055018 2263.0
92.051409 121.0
92.99274 34.0
93.06172 124.0
94.06614 198.0
95.053031 53.0
95.082641 81.0
96.082522 17.0
97.066393 21.0
98.015504 33.0
99.036495 24.0
100.111776 21.0
101.037227 15.0
102.043117 44.0
103.054988 231.0
104.056849 81.0
105.05051 46.0
105.0716 118.0
106.056971 33.0
106.072101 87.0
107.059092 20.0
107.080382 66.0
108.080193 20.0
109.103074 26.0
110.095814 30.0
111.001175 15.0
112.009756 27.0
112.112416 90.0
112.999987 37.0
113.030187 35.0
115.053399 521.0
116.05486 101.0
117.06595 164.0
118.064391 68.0
119.087392 73.0
120.081523 29.0
121.073314 20.0
121.102414 24.0
123.115876 20.0
124.053526 26.0
126.042868 29.0
127.054509 198.0
128.06355 376.0
129.065461 144.0
130.990123 51.0
131.051803 14.0
131.076473 44.0
132.019153 34.0
132.077683 43.0
133.017164 16.0
133.069134 26.0
134.097205 32.0
135.108726 24.0
139.039149 25.0
139.05646 104.0
140.04476 25.0
140.05286 29.0
141.070271 136.0
142.064512 42.0
143.064583 15.0
143.077463 80.0
144.083444 68.0
145.057535 12.0
145.076415 30.0
145.969816 50.0
147.091616 37.0
147.961397 25.0
150.049259 30.0
151.05531 42.0
152.052661 48.0
152.061111 182.0
153.065422 52.0
153.070252 95.0
154.063283 33.0
155.076593 76.0
156.076104 38.0
157.094765 21.0
158.093346 54.0
159.086447 24.0
159.100027 50.0
160.116118 31.0
161.098129 16.0
163.0574 33.0
164.063431 21.0
165.058712 34.0
165.068782 136.0
166.072163 63.0
167.076034 139.0
168.081665 57.0
169.082676 36.0
170.073886 29.0
170.094336 24.0
171.103867 25.0
172.111238 18.0
173.044259 28.0
173.108689 21.0
175.015041 24.0
176.062452 42.0
178.068593 59.0
178.080363 122.0
179.084454 83.0
180.080855 54.0
180.989056 18.0
181.069456 38.0
182.190337 38.0
183.083968 21.0
184.090069 27.0
184.110019 17.0
185.114949 21.0
187.044571 17.0
188.062842 33.0
189.071753 69.0
191.002885 89.0
191.076015 33.0
192.076656 21.0
192.980586 85.0
193.089456 21.0
194.095357 48.0
194.962978 22.0
195.103888 27.0
197.04625 19.0
198.127191 20.0
200.138583 27.0
202.057034 26.0
202.077924 37.0
203.051105 732.0

