>compound 
>formula C26H28O15
>parentmass 581.15010119599
>ionization [M + H]+
>instrumentation Unknown (LCMS)
>source file:/Users/fanzhoukong/Documents/GitHub/Libgen/data/EAD_PFP/0_unknown_/spectrum.ms
>quality UNKNOWN

>ms2peaks
126.046646 140.0
127.054985 395.0
128.064024 973.0
129.062572 30.0
129.071482 113.0
131.05003 276.0
132.060129 64.0
132.081529 23.0
133.031188 33.0
133.065088 35.0
134.039817 56.0
135.040876 60.0
135.048856 95.0
137.024344 1748.0
138.049123 98.0
139.059241 472.0
140.06375 29.0
141.076559 229.0
142.042768 28.0
143.048627 48.0
144.059206 27.0
145.056805 41.0
147.775992 11.0
153.012516 97.0
155.051404 348.0
157.065722 210.0
159.034989 54.0
159.044859 162.0
160.055798 227.0
161.062477 154.0
163.041555 294.0
164.068874 48.0
165.065403 42.0
165.072973 154.0
166.054892 41.0
167.054921 419.0
168.061759 572.0
169.063978 2173.0
170.034687 31.0
170.083217 47.0
171.045336 618.0
172.055095 122.0
173.061414 1220.0
174.030593 42.0
174.069363 240.0
175.040062 421.0
176.048551 65.0
176.065451 40.0
177.054729 1387.0
178.075518 37.0
179.049447 66.0
181.060625 51.0
181.072485 85.0
183.039273 126.0
183.044583 1469.0
184.054582 1228.0
185.060681 1624.0
186.04281 104.0
186.06821 70.0
187.036918 343.0
187.040938 745.0
187.057008 105.0
188.044417 157.0
189.057306 428.0
190.074285 38.0
191.069604 54.0
192.067523 39.0
192.980952 36.0
194.057511 36.0
194.101181 25.0
195.04952 312.0
196.056399 207.0
197.064497 1886.0
198.069656 55.0
199.044205 182.0
200.047464 916.0
201.057413 3027.0
202.064362 2419.0
203.037501 8694.0
205.014659 28.0
205.084799 52.0
207.036626 58.0
207.976455 47.0
208.072525 34.0
209.016134 26.0
210.032823 167.0
211.040602 3448.0
212.050801 589.0
213.05913 4317.0
214.062669 196.0
215.035518 125.0
215.048448 160.0
216.042267 363.0
217.052785 252.0
219.066433 752.0
221.041311 45.0
223.042609 110.0
224.051778 54.0
225.055867 746.0
226.051875 48.0
226.065135 60.0
227.032394 199.0
227.042734 189.0
228.046093 1643.0
229.054642 3874.0
230.060951 732.0
231.06947 984.0
231.825069 32.0
236.059344 48.0
237.056783 93.0
238.060852 27.0
239.038251 2193.0
240.04803 444.0
241.052339 3373.0
242.055658 449.0
243.041237 213.0
243.048867 1256.0
243.059567 699.0
244.027296 42.0
244.041076 121.0
245.053655 293.0
248.98746 56.0
249.06321 29.0
251.021198 51.0
251.036718 83.0
252.034167 113.0
252.043487 215.0
253.053846 494.0
255.035244 116.0
255.043074 80.0
256.042172 902.0
257.047941 5837.0
258.05883 9347.0
259.059079 311.0
261.415306 24.0
265.026293 31.0
265.061362 32.0
267.0363 1768.0
268.036149 139.0
269.049118 3136.0
270.057567 77.0
271.051736 67.0
271.063026 79.0
273.037514 43.0
277.056889 35.0
279.064487 62.0
280.022646 31.0
280.043946 51.0
281.054685 250.0
282.052464 165.0
283.042113 43.0
283.065183 123.0
284.030182 504.0
284.481071 27.0
285.04476 14451.0
286.051229 8949.0
286.764119 50.0
287.057828 31354.0
288.400477 53.0
289.481166 12.0
295.834239 12.0
298.052376 47.0
304.626559 12.0
311.054712 54.0
315.049857 45.0
318.187464 196.0
323.051529 19.0
325.070696 35.0
329.071082 47.0
331.11787 37.0
351.986247 175.0
352.581986 97.0
353.067765 35.0
362.424565 12.0
365.064512 36.0
366.64596 33.0
369.092278 30.0
373.089163 28.0
373.886222 12.0
375.368941 814.0
377.069539 32.0
378.076488 37.0
382.215433 35.0
383.072002 19.0
383.091192 40.0
384.079291 19.0
395.075069 32.0
401.087182 48.0
403.07704 36.0
413.122139 12.0
419.097013 129.0
431.100209 52.0
447.623011 77.0
449.09158 366.0
449.11651 16444.0
450.338038 35.0
450.722718 45.0
451.530027 29.0
453.766354 30.0
466.134291 33.0
477.118069 27.0
581.160774 30.0

