>compound 
>formula C32H46O10
>parentmass 608.3429186782801
>ionization [M + H3N + H]+
>instrumentation Unknown (LCMS)
>source file:/Users/fanzhoukong/Documents/GitHub/Libgen/data/EAD_PFP/0_unknown_/spectrum.ms
>quality UNKNOWN

>ms2peaks
123.080343 79.0
125.044373 86.0
126.046513 181.0
127.057073 531.0
128.060574 3188.0
129.069134 1559.0
130.074964 246.0
131.075714 536.0
131.086934 795.0
132.060025 127.0
133.102285 1528.0
135.079495 1254.0
136.087845 111.0
137.095366 513.0
139.058006 241.0
139.075336 247.0
141.067176 723.0
141.071826 1044.0
142.075417 173.0
143.086067 230.0
145.100407 281.0
152.065149 198.0
153.069449 180.0
155.086749 118.0
156.09241 216.0
157.09885 664.0
158.07529 289.0
159.09798 1398.0
160.08802 403.0
161.097301 3606.0
162.102271 389.0
163.111611 1051.0
164.078911 263.0
165.072972 2784.0
166.076382 874.0
167.085322 1132.0
168.092262 773.0
169.099682 1132.0
170.099883 243.0
171.092763 362.0
171.118383 764.0
172.092413 356.0
173.107863 1653.0
174.104303 149.0
175.113994 5860.0
176.091484 113.0
177.103004 535.0
177.130384 628.0
178.078194 1170.0
179.096694 2310.0
180.095765 491.0
181.098915 1443.0
182.094285 866.0
183.079115 88.0
183.116235 1606.0
184.097176 269.0
185.099406 819.0
185.106076 544.0
185.116746 1267.0
186.104366 222.0
187.112026 1172.0
188.099576 164.0
189.113977 842.0
189.130137 579.0
190.078427 218.0
190.102737 136.0
191.092707 726.0
191.111677 455.0
192.094767 541.0
193.098097 463.0
193.104907 823.0
194.109478 505.0
195.115308 945.0
196.112748 359.0
197.133358 1070.0
198.100108 122.0
199.106519 654.0
199.120349 899.0
200.118259 123.0
201.088109 87.0
201.111729 919.0
201.128399 548.0
203.10603 7610.0
204.09569 101.0
205.11159 803.0
205.12422 490.0
206.10892 294.0
207.11853 1314.0
208.119311 78.0
208.124971 361.0
209.112601 458.0
209.126761 1518.0
210.106801 368.0
210.136611 241.0
211.129001 388.0
211.147491 906.0
213.129332 2180.0
214.138802 108.0
215.133362 375.0
215.143432 565.0
216.089942 120.0
217.109253 627.0
218.103473 144.0
219.108663 524.0
220.116173 272.0
221.136173 333.0
221.144913 1700.0
222.119134 101.0
222.138094 240.0
223.143754 625.0
223.146684 1268.0
224.117944 127.0
224.144334 176.0
225.139824 843.0
227.128545 502.0
227.137415 1911.0
228.146905 219.0
229.130465 459.0
229.142325 1225.0
230.148845 167.0
231.132225 504.0
231.135195 1199.0
232.110256 181.0
233.117276 716.0
233.136706 480.0
234.118966 174.0
234.135456 268.0
235.125816 495.0
235.146846 626.0
236.157407 244.0
237.136937 282.0
237.153547 502.0
237.167127 277.0
238.120037 89.0
239.162717 721.0
240.113537 85.0
241.142308 361.0
241.174268 291.0
242.115348 123.0
242.170218 108.0
243.136178 589.0
244.136198 133.0
245.152068 1036.0
246.142379 78.0
247.157789 823.0
249.146949 800.0
250.154579 166.0
251.15184 665.0
251.16116 854.0
253.1336 354.0
253.16009 425.0
255.143471 750.0
255.168511 303.0
256.127091 90.0
257.155041 641.0
258.148821 68.0
259.141371 359.0
259.153971 986.0
260.146862 157.0
261.147992 212.0
261.155902 364.0
262.135172 105.0
263.149642 362.0
265.186083 454.0
267.161483 401.0
267.172683 634.0
268.143933 145.0
269.158703 2372.0
270.152844 249.0
271.143994 271.0
271.173024 720.0
273.139814 237.0
273.157634 394.0
275.168965 2132.0
276.175765 103.0
277.145245 1151.0
279.136826 149.0
279.177726 257.0
281.124006 123.0
281.165086 296.0
283.180896 444.0
283.189136 346.0
285.180747 1005.0
286.177507 100.0
287.152787 324.0
287.176017 406.0
288.172928 209.0
289.159928 421.0
291.177388 247.0
291.212518 384.0
292.209708 82.0
293.175069 538.0
293.191819 788.0
295.172809 993.0
296.180139 144.0
297.185779 1112.0
299.16323 144.0
301.15746 80.0
301.18804 353.0
303.190701 712.0
305.169181 183.0
307.167812 338.0
307.178122 355.0
309.188502 969.0
310.190082 262.0
311.203702 6314.0
313.180383 620.0
313.204643 418.0
314.169303 214.0
315.182423 492.0
315.201563 717.0
317.183894 272.0
319.184684 214.0
319.207424 527.0
321.197044 167.0
322.187985 179.0
323.182245 97.0
325.187705 355.0
325.208915 314.0
327.199366 1092.0
328.206636 213.0
329.208336 1501.0
329.215446 4813.0
331.194947 685.0
333.203637 562.0
335.205807 1472.0
336.201968 103.0
337.201418 496.0
337.222988 832.0
339.195708 603.0
341.204959 188.0
341.221219 332.0
343.183809 160.0
343.227359 440.0
345.19025 125.0
345.2048 190.0
347.20435 401.0
347.21713 240.0
349.19318 193.0
349.21332 380.0
351.195041 122.0
353.195251 301.0
353.219211 829.0
354.221471 235.0
355.208562 1314.0
357.196082 788.0
357.212742 1002.0
359.191012 159.0
361.204533 75.0
363.208743 425.0
363.227423 280.0
364.197054 119.0
365.216654 160.0
367.226294 126.0
369.209475 123.0
371.196115 346.0
371.226325 1750.0
373.189975 298.0
373.208895 1247.0
374.201236 213.0
374.216376 197.0
375.210056 525.0
375.236606 526.0
377.203226 215.0
379.230297 220.0
381.211157 418.0
382.227457 158.0
383.201028 167.0
383.233618 102.0
385.247968 289.0
387.234838 110.0
389.232589 1018.0
390.224679 149.0
391.233559 439.0
393.21052 175.0
393.24549 92.0
395.20414 124.0
395.22947 118.0
399.218271 260.0
401.199571 369.0
403.260542 699.0
405.255782 583.0
407.244093 598.0
407.267803 471.0
409.217453 186.0
409.261033 237.0
413.256114 790.0
415.218034 85.0
415.263934 84.0
417.228595 437.0
417.240585 329.0
419.209915 492.0
421.278366 680.0
423.249136 123.0
424.233206 79.0
425.242666 240.0
425.248706 371.0
431.255418 6200.0
431.267628 9439.0
432.271168 196.0
433.239158 532.0
433.261588 435.0
435.241749 262.0
435.262169 1870.0
437.218219 88.0
439.285419 411.0
441.22576 67.0
449.266622 4315.0
449.274952 11548.0
450.274252 578.0
451.260092 943.0
451.285062 607.0
452.288692 79.0
453.266322 1412.0
454.276333 118.0
459.238214 168.0
459.263424 264.0
461.971364 24.0
465.733185 65.0
466.280905 152.0
467.265075 3155.0
467.286255 20284.0
468.296906 753.0
469.274686 125.0
469.302276 187.0
470.264126 159.0
471.260956 83.0
474.204527 70.0
477.257837 1638.0
483.667419 179.0
483.712649 112.0
484.273009 128.0
484.715029 210.0
485.297519 25641.0
486.299379 164.0
487.18982 117.0
494.264281 148.0
495.275331 3847.0
495.290591 8828.0
496.289611 248.0
502.320193 121.0
512.279915 212.0
513.289255 13672.0
514.290655 595.0
530.293099 412.0
531.281689 5790.0
531.297499 18255.0
608.320705 138.0
608.339995 425.0
608.356895 349.0

