>compound 
>formula C30H52O6
>parentmass 509.38367039338
>ionization [M + H]+
>instrumentation Unknown (LCMS)
>source file:/Users/fanzhoukong/Documents/GitHub/Libgen/data/EAD_PFP/0_unknown_/spectrum.ms
>quality UNKNOWN

>ms2peaks
105.069539 22.0
115.052291 278.0
115.054391 981.0
116.06112 181.0
117.061639 347.0
117.067999 336.0
119.085177 1293.0
120.084666 301.0
121.101266 754.0
123.111444 126.0
125.095442 262.0
126.050481 114.0
128.06235 806.0
129.089849 287.0
142.078428 22.0
143.103147 681.0
145.099905 791.0
147.118824 1397.0
149.128952 783.0
151.1142 167.0
152.061009 716.0
153.067719 1307.0
154.076538 476.0
155.087447 1466.0
156.093106 741.0
157.103235 2011.0
158.110474 318.0
159.117193 3077.0
160.103583 128.0
160.120933 150.0
161.132802 1190.0
163.13107 291.0
164.059529 152.0
165.069888 2523.0
166.078327 325.0
167.087287 113.0
167.141747 2063.0
168.094226 463.0
169.101645 1433.0
170.109514 291.0
171.117813 1964.0
172.121382 163.0
173.131761 1551.0
175.15098 1158.0
177.128478 311.0
178.074977 454.0
179.079046 168.0
179.092156 419.0
180.092526 329.0
181.099635 472.0
182.108204 477.0
183.119593 1645.0
184.125812 203.0
185.133441 1762.0
186.14116 88.0
187.14759 2113.0
189.064848 115.0
189.160488 307.0
191.074476 92.0
191.136766 375.0
192.092775 215.0
193.136925 480.0
194.106104 141.0
195.129713 1823.0
197.128591 929.0
198.13255 113.0
199.145939 1908.0
200.153629 100.0
201.163858 1319.0
202.080527 234.0
203.144456 448.0
203.168206 237.0
204.083815 102.0
205.157214 189.0
207.113613 263.0
209.126071 386.0
210.14303 198.0
211.143959 926.0
212.152978 215.0
213.162978 1505.0
215.182966 350.0
217.156184 260.0
219.128252 214.0
219.161592 336.0
221.126711 264.0
222.14176 138.0
223.150349 582.0
225.161147 530.0
227.179506 1172.0
229.184594 426.0
231.180632 270.0
233.134471 85.0
233.186821 217.0
235.055979 423.0
237.163347 731.0
239.178605 681.0
241.182624 669.0
241.196304 422.0
243.176652 336.0
245.18657 604.0
247.149309 299.0
249.150817 182.0
249.170907 220.0
250.090276 199.0
251.183645 466.0
253.190464 289.0
253.195154 455.0
255.191202 300.0
255.200582 386.0
257.19193 1345.0
259.205198 582.0
261.188357 566.0
263.193325 497.0
263.201295 847.0
265.111873 1527.0
266.114503 98.0
267.213532 1283.0
269.20126 338.0
271.206078 296.0
273.218317 309.0
275.202225 1545.0
277.211293 434.0
277.217793 2238.0
279.209612 603.0
281.20857 376.0
283.201458 802.0
283.209698 1656.0
285.219586 1977.0
285.226206 4907.0
287.205025 110.0
287.233255 517.0
288.207004 93.0
289.215703 298.0
291.223331 491.0
293.22617 1569.0
295.217378 599.0
295.244298 310.0
297.228816 534.0
299.235225 1243.0
301.222863 1055.0
302.225122 128.0
303.234161 278.0
305.235009 277.0
307.230458 239.0
309.218586 323.0
311.233904 901.0
313.233203 1233.0
315.228471 345.0
315.235431 926.0
317.228319 343.0
319.241528 269.0
321.254036 255.0
323.251774 195.0
325.250372 576.0
327.248051 725.0
328.23056 156.0
329.248299 1769.0
330.251588 219.0
331.267127 683.0
333.243806 321.0
333.265256 448.0
335.240724 334.0
337.252622 467.0
339.270531 1258.0
341.241969 179.0
342.261558 97.0
343.275417 300.0
345.254785 188.0
346.218375 199.0
347.256304 331.0
347.265434 636.0
349.263602 157.0
351.26933 998.0
353.256879 299.0
354.253678 71.0
355.275887 775.0
357.283975 566.0
359.268014 401.0
363.27311 436.0
365.283028 544.0
367.270357 144.0
367.285377 271.0
369.270595 265.0
369.280025 1813.0
370.289734 388.0
371.283813 235.0
373.276032 118.0
375.28683 176.0
377.284018 596.0
377.295438 106.0
379.288417 257.0
379.303677 129.0
381.307695 326.0
381.321065 764.0
382.295364 120.0
383.290123 676.0
385.268082 175.0
386.316731 126.0
389.320448 111.0
391.292586 211.0
391.310036 246.0
393.310495 971.0
395.300483 439.0
397.330631 278.0
399.28766 304.0
399.30726 564.0
401.318208 406.0
403.290956 137.0
407.324063 306.0
407.335933 3228.0
409.333311 551.0
410.20782 156.0
411.327599 358.0
413.322748 358.0
417.303544 86.0
417.317554 134.0
418.328783 94.0
419.333213 4725.0
421.311451 1730.0
423.334699 155.0
425.346628 2755.0
427.316726 231.0
431.321452 93.0
436.344948 161.0
437.352327 6409.0
439.325346 2166.0
441.337834 145.0
443.356962 4155.0
445.339351 380.0
449.263447 147.0
453.331934 190.0
454.356653 375.0
455.367852 14279.0
457.33498 1841.0
461.357737 1447.0
471.357639 126.0
472.359928 485.0
473.352607 2015.0
473.373907 4406.0
475.341065 1175.0
490.365832 247.0
491.375082 227.0
509.254456 1304.0
509.283176 797.0

