>compound 
>formula C18H24O12
>parentmass 455.11599720836006
>ionization [M + Na]+
>instrumentation Unknown (LCMS)
>source file:/Users/fanzhoukong/Documents/GitHub/Libgen/data/EAD_PFP/0_unknown_/spectrum.ms
>quality UNKNOWN

>ms2peaks
115.053399 107.0
117.065934 20.0
118.065431 49.0
119.060639 51.0
120.079336 24.0
126.047212 58.0
127.05004 65.0
128.061267 108.0
129.064265 28.0
130.068952 58.0
131.05847 29.0
147.041582 133.0
150.044305 59.0
151.055172 62.0
152.06337 222.0
153.038587 84.0
153.057967 66.0
154.067975 69.0
155.067902 33.0
156.05512 59.0
157.085988 26.0
158.098085 83.0
159.115923 36.0
160.10355 51.0
162.053016 49.0
163.057203 43.0
165.022019 71.0
165.068578 149.0
166.066896 49.0
167.079624 74.0
168.073831 63.0
169.023879 96.0
169.070989 30.0
170.071116 24.0
171.042154 243.0
172.121312 18.0
173.130389 43.0
174.126907 25.0
175.042014 425.0
176.064832 58.0
177.06843 25.0
178.078817 87.0
179.084195 46.0
180.071392 49.0
181.06921 38.0
185.04538 403.0
187.036266 419.0
189.064731 54.0
190.069588 49.0
191.002616 99.0
192.081804 55.0
192.094024 44.0
193.049691 131.0
193.984539 27.0
194.097809 71.0
195.094016 26.0
197.018452 746.0
199.032487 66.0
200.074524 39.0
201.042872 83.0
202.07066 62.0
203.047997 309.0
204.085085 44.0
207.033138 172.0
208.033695 20.0
209.011193 25.0
212.148555 29.0
215.033388 515.0
216.043006 30.0
216.063156 55.0
217.044874 78.0
221.043544 28.0
225.044874 27.0
229.049505 146.0
231.04046 127.0
231.05388 256.0
233.040075 59.0
234.046103 22.0
235.06031 93.0
241.092676 14.0
243.106201 11.0
245.045286 33.0
247.058282 208.0
249.071767 246.0
251.046852 16.0
253.079607 24.0
257.047228 127.0
259.096203 12.0
263.062833 12.0
265.014368 37.0
266.995564 23.0
273.031899 29.0
275.059024 3812.0
281.05394 201.0
283.051245 43.0
289.083861 12.0
291.044246 203.0
292.057884 60.0
293.064931 987.0
299.058747 24.0
303.049707 39.0
321.057144 195.0
323.108859 20.0
333.096905 32.0
335.07725 41.0
340.176658 21.0
349.087587 43.0
351.094662 26.0
351.101992 74.0
363.071173 38.0
365.084318 34.0
367.095483 49.0
377.083949 104.0
378.085227 12.0
379.103085 369.0
381.07787 71.0
383.088455 32.0
383.099995 324.0
393.121751 45.0
394.089619 43.0
395.095686 161.0
396.103014 12.0
407.094437 27.0
407.137927 12.0
409.113023 47.0
411.098828 661.0
413.105383 28.0
425.101874 26.0
435.05436 12.0
435.11973 12.0
437.110265 1145.0
453.106357 156.0
453.590266 26.0
454.107844 45.0
455.122952 12300.0

