>compound 
>formula C16H18O5
>parentmass 313.10464467799005
>ionization [M + Na]+
>instrumentation Unknown (LCMS)
>source file:/Users/fanzhoukong/Documents/GitHub/Libgen/data/EAD_PFP/0_unknown_/spectrum.ms
>quality UNKNOWN

>ms2peaks
50.014027 213.0
51.022256 292.0
52.025695 23.0
52.030645 72.0
53.036774 82.0
55.052493 202.0
56.049142 24.0
57.068791 51.0
59.04455 24.0
60.982757 49.0
62.012967 41.0
63.021456 124.0
64.026335 28.0
65.035205 745.0
66.043204 66.0
67.051743 233.0
68.047712 41.0
68.992421 146.0
71.04581 26.0
72.935087 14.0
73.047238 22.0
74.012437 44.0
75.011966 53.0
76.029306 79.0
77.037155 647.0
79.050113 244.0
80.049682 87.0
81.065222 99.0
82.051671 34.0
83.05033 22.0
83.08336 28.0
84.956477 14.0
85.063058 19.0
87.026766 31.0
88.028506 15.0
89.036905 167.0
90.043614 64.0
91.054113 2230.0
92.054263 179.0
93.031532 39.0
93.056102 52.0
93.063662 41.0
94.039611 22.0
94.065261 46.0
95.06649 64.0
95.08368 62.0
99.044447 17.0
101.032485 17.0
102.041334 42.0
103.051224 135.0
104.051083 38.0
105.055782 119.0
105.067832 145.0
106.062271 22.0
107.084711 69.0
108.09169 38.0
109.084959 34.0
110.997387 49.0
112.006996 19.0
112.999305 63.0
114.032614 18.0
115.053804 238.0
116.056323 38.0
117.064252 156.0
118.049931 24.0
119.080361 31.0
120.07125 26.0
121.026369 39.0
121.060859 40.0
121.098589 21.0
122.081588 15.0
123.044657 28.0
123.081607 33.0
123.115298 20.0
125.068676 15.0
127.045144 24.0
127.052874 75.0
128.059693 216.0
129.064942 71.0
130.066272 59.0
131.050191 30.0
131.062531 55.0
132.01754 29.0
132.07383 25.0
133.066429 33.0
133.079979 25.0
134.095609 31.0
135.099178 13.0
137.069336 37.0
139.054894 43.0
141.068723 96.0
141.92056 17.0
141.931051 16.0
142.069952 20.0
143.082951 52.0
143.089981 30.0
144.07837 23.0
145.084309 27.0
145.968298 44.0
146.084309 32.0
147.052078 17.0
147.097228 25.0
147.963446 14.0
149.023516 342.0
151.035754 38.0
151.044194 29.0
151.061034 35.0
152.060834 92.0
153.066353 80.0
154.061792 28.0
155.060481 42.0
155.075131 28.0
155.088541 53.0
156.06362 29.0
157.06875 34.0
157.08471 27.0
157.09576 51.0
158.093119 17.0
158.099279 28.0
159.076338 62.0
159.113398 28.0
161.063116 26.0
161.109117 20.0
163.049714 18.0
164.055744 22.0
165.067363 88.0
166.061902 47.0
167.070831 26.0
167.084761 80.0
168.05994 35.0
168.072641 26.0
168.091691 21.0
169.0749 38.0
169.08638 25.0
171.040968 12.0
171.080708 23.0
171.092228 35.0
171.114018 17.0
172.091887 20.0
173.133107 18.0
175.038304 59.0
175.109595 20.0
176.046804 22.0
177.056883 20.0
177.129894 13.0
178.077722 93.0
179.050341 13.0
179.085742 27.0
180.087391 29.0
181.023299 30.0
181.06285 24.0
182.073999 25.0
183.076028 27.0
183.099879 27.0
184.046237 21.0
185.077657 14.0
185.130957 37.0
187.055335 16.0
187.107605 21.0
189.054303 148.0
189.059693 310.0
190.069923 24.0
190.998901 53.0
191.088272 28.0
192.991569 32.0
193.06779 25.0
194.085919 38.0
196.086338 19.0
197.047777 14.0
197.068387 17.0
197.109647 16.0
199.055055 33.0
199.107575 23.0
200.155355 20.0
201.085024 15.0
202.079493 26.0
203.065272 15.0
203.083392 33.0
203.112722 31.0
204.080001 40.0
205.04818 33.0
205.0594 36.0
206.08754 15.0
206.15927 18.0
207.032288 113.0
207.049188 30.0
207.099939 19.0
208.018727 13.0
208.054048 15.0
209.014606 21.0
209.098157 21.0
210.127867 29.0
211.074675 25.0
211.120226 42.0
212.082125 34.0
213.056194 122.0
216.062401 19.0
217.123501 33.0
219.035998 26.0
219.069339 55.0
219.099789 26.0
221.048617 14.0
221.103957 16.0
223.071925 24.0
225.039754 13.0
225.067684 21.0
226.062273 20.0
226.284735 35.0
227.036912 5412.0
228.072821 50.0
228.140872 27.0
229.094791 15.0
231.100869 73.0
231.121719 62.0
232.059448 19.0
233.124668 28.0
235.125776 25.0
236.073065 14.0
237.061494 15.0
239.071792 18.0
239.108143 21.0
241.0343 38.0
241.090581 27.0
242.0544 568.0
243.061349 66.0
244.094898 18.0
245.043187 19.0
247.120876 13.0
249.032594 27.0
249.054234 35.0
250.053953 22.0
251.021522 20.0
251.071183 31.0
253.051081 36.0
253.178882 14.0
254.08688 14.0
258.120597 13.0
265.020381 30.0
265.082571 39.0
267.059219 51.0
267.08003 16.0
268.120049 40.0
271.055496 21.0
271.066796 22.0
277.050951 13.0
277.099872 23.0
277.401624 16.0
280.072429 13.0
281.050408 26.0
281.078328 290.0
282.053097 16.0
283.062536 29.0
284.105116 20.0
286.000553 22.0
295.065516 17.0
295.092437 28.0
295.153007 15.0
297.049425 21.0
297.074755 89.0
298.086994 17.0
311.090174 34.0
312.075833 157.0
312.087953 78.0
313.109842 10410.0

