>compound 
>formula C19H20O7
>parentmass 361.1281839815901
>ionization [M + H]+
>instrumentation Unknown (LCMS)
>source file:/Users/fanzhoukong/Documents/GitHub/Libgen/data/EAD_PFP/0_unknown_/spectrum.ms
>quality UNKNOWN

>ms2peaks
50.016052 215.0
51.02425 395.0
52.031207 73.0
53.039435 64.0
55.052939 43.0
55.056569 134.0
56.057617 15.0
57.936802 27.0
59.047859 18.0
60.985284 44.0
62.016241 82.0
63.025509 230.0
65.036873 59.0
65.040033 1423.0
66.045651 114.0
67.051758 107.0
67.054168 164.0
68.054165 23.0
68.994813 281.0
69.069693 24.0
73.066312 20.0
74.01981 29.0
75.013417 77.0
76.032435 79.0
77.040282 1134.0
78.043509 270.0
79.054967 546.0
80.050144 52.0
81.067421 82.0
82.066279 19.0
83.050716 359.0
85.053461 20.0
86.004719 21.0
88.028763 38.0
89.041761 509.0
90.041958 111.0
91.056155 1732.0
92.058183 146.0
93.06096 47.0
94.042568 57.0
94.051118 50.0
95.050335 43.0
95.087585 47.0
95.954053 19.0
96.080752 15.0
97.06461 25.0
97.950677 16.0
99.043455 16.0
100.037422 26.0
101.043249 26.0
102.048167 78.0
103.055074 89.0
104.055942 50.0
105.035529 45.0
105.063639 90.0
106.037866 28.0
106.068136 60.0
107.051044 232.0
108.047661 14.0
108.071081 77.0
109.064228 64.0
110.039316 18.0
111.002233 35.0
112.998948 66.0
113.056228 23.0
114.046875 34.0
115.056543 461.0
116.05589 57.0
116.06222 94.0
117.043668 144.0
117.054258 104.0
117.071218 146.0
118.039875 96.0
118.057975 35.0
119.054202 169.0
120.08361 34.0
121.035527 18.0
121.073247 46.0
121.105587 32.0
122.037725 60.0
123.044062 151.0
124.049069 36.0
125.047217 33.0
126.050464 46.0
127.053292 85.0
128.063419 362.0
129.070876 89.0
130.059934 50.0
130.066654 53.0
130.993341 52.0
131.060641 106.0
132.018989 20.0
132.057258 38.0
133.030576 94.0
134.038043 96.0
135.044791 180.0
136.051868 122.0
137.062685 970.0
139.03661 19.0
139.05857 42.0
140.052648 27.0
141.071215 84.0
142.075962 49.0
142.081782 74.0
143.07371 37.0
144.080837 40.0
145.027775 54.0
145.102114 20.0
146.033472 18.0
147.040259 73.0
147.967067 37.0
149.052224 39.0
149.133554 19.0
150.046552 30.0
151.040569 188.0
152.064426 176.0
153.067504 116.0
154.084841 81.0
155.071378 59.0
155.084808 61.0
156.075736 35.0
157.080913 61.0
158.078201 28.0
159.051488 40.0
160.047565 39.0
161.041793 50.0
161.050483 51.0
161.092773 50.0
161.106443 45.0
162.03162 28.0
162.04409 49.0
163.040728 389.0
164.045455 185.0
165.059552 716.0
166.0692 53.0
166.0793 109.0
167.062937 62.0
167.079407 150.0
168.063435 30.0
168.069785 26.0
169.069492 44.0
169.089862 53.0
169.102602 25.0
170.093879 36.0
171.090597 22.0
171.098287 37.0
172.106934 19.0
173.023162 14.0
173.096611 31.0
174.029699 16.0
174.093039 28.0
175.109166 30.0
176.059364 43.0
176.076254 18.0
177.051211 20.0
179.030196 78.0
179.076056 56.0
180.042203 75.0
181.045191 125.0
182.050978 38.0
182.084028 32.0
183.070155 79.0
184.078883 16.0
185.12237 24.0
187.041315 244.0
188.048812 143.0
189.04691 172.0
190.070597 16.0
191.037475 36.0
192.033962 26.0
192.067892 16.0
192.99083 46.0
193.035739 29.0
194.068807 35.0
194.085177 24.0
195.074504 31.0
196.128091 38.0
197.056609 22.0
197.103339 37.0
198.075526 12.0
200.047821 16.0
201.085558 31.0
203.078313 36.0
203.145353 23.0
205.043048 38.0
207.034143 63.0
207.045423 78.0
207.072203 32.0
209.077358 21.0
210.991123 17.0
211.075072 29.0
212.07965 13.0
213.099467 27.0
215.077492 40.0
215.088982 37.0
215.099042 35.0
217.103607 21.0
219.092851 18.0
221.056176 28.0
222.060824 31.0
223.057531 20.0
223.075091 75.0
225.082606 39.0
227.071071 46.0
228.070038 21.0
229.084585 56.0
231.11145 37.0
233.035075 21.0
235.07329 14.0
237.055525 18.0
239.070329 61.0
240.075607 23.0
241.043454 25.0
241.084524 34.0
241.117984 24.0
242.158051 15.0
243.096459 28.0
245.089174 18.0
246.050161 40.0
247.103878 27.0
248.142866 11.0
249.055703 37.0
250.056951 26.0
251.060228 51.0
252.065495 29.0
253.077453 34.0
255.057388 43.0
257.079582 18.0
257.101552 25.0
258.11254 29.0
259.065597 24.0
261.109932 18.0
261.117842 36.0
265.018492 18.0
265.029662 23.0
267.015706 20.0
267.066916 34.0
268.070034 59.0
269.073411 47.0
270.080278 23.0
274.082738 24.0
275.074555 34.0
275.137945 31.0
277.04889 27.0
279.180845 22.0
281.05651 105.0
282.050977 20.0
283.066965 22.0
285.074689 40.0
286.072917 17.0
287.091164 29.0
289.114749 15.0
290.140036 19.0
294.054396 42.0
294.138416 21.0
295.059823 54.0
296.063581 63.0
297.063968 99.0
297.089298 43.0
299.081663 75.0
300.13464 14.0
307.050792 27.0
307.098862 20.0
308.126319 19.0
309.176156 18.0
312.061129 17.0
314.068294 74.0
315.110801 30.0
323.05158 20.0
324.052458 24.0
325.065455 253.0
329.087114 25.0
333.167454 13.0
333.181764 27.0
342.062761 22.0
343.065408 88.0
343.176098 61.0
361.120231 103.0
361.146291 194.0
361.168631 319.0
361.189111 93.0

