>compound 
>formula C50H84O22
>parentmass 1054.57924533786
>ionization [M + H3N + H]+
>instrumentation Unknown (LCMS)
>source file:/Users/fanzhoukong/Documents/GitHub/Libgen/data/EAD_PFP/0_unknown_/spectrum.ms
>quality UNKNOWN

>ms2peaks
126.047609 70.0
127.054856 81.0
128.062783 249.0
129.06022 172.0
130.072698 48.0
131.083535 54.0
133.10338 388.0
135.118144 163.0
137.058599 51.0
139.057924 151.0
140.062431 22.0
141.070568 241.0
142.076485 139.0
143.085953 213.0
145.095557 122.0
145.099097 349.0
147.113262 144.0
157.025015 23.0
164.088716 71.0
165.070244 350.0
167.073678 77.0
167.081278 360.0
168.083126 114.0
169.105793 99.0
170.10984 74.0
171.087378 135.0
171.119417 163.0
172.122985 112.0
173.132082 316.0
175.149997 223.0
176.062614 71.0
177.163991 128.0
178.076579 169.0
179.080666 172.0
180.090193 32.0
181.098591 119.0
182.088668 70.0
183.065555 96.0
184.118113 54.0
185.1324 295.0
186.141437 68.0
187.151894 644.0
188.154312 68.0
189.162129 1441.0
190.996224 40.0
192.088981 142.0
193.084108 66.0
193.095008 127.0
195.117663 152.0
197.128858 107.0
199.153122 137.0
201.158557 204.0
202.076594 136.0
203.181011 88.0
204.084069 45.0
205.157456 60.0
206.104263 69.0
207.036331 149.0
209.099385 70.0
211.14562 172.0
213.075955 92.0
214.135442 74.0
215.177439 227.0
219.087859 94.0
221.078843 79.0
225.131942 23.0
227.181157 118.0
229.189241 57.0
231.088476 115.0
239.092425 1414.0
241.193419 91.0
243.204304 108.0
248.991688 38.0
251.182232 66.0
255.216362 276.0
257.100936 1098.0
259.109141 76.0
261.220125 53.0
265.019465 64.0
266.018733 85.0
269.222244 36.0
270.227791 137.0
271.246498 3285.0
272.250956 57.0
275.111328 577.0
281.047682 179.0
283.246036 157.0
285.092261 40.0
288.243643 69.0
289.2474 268.0
292.116772 113.0
293.12223 870.0
293.12391 3563.0
299.201353 81.0
307.239052 23.0
309.125577 157.0
311.130211 352.0
311.137111 479.0
312.243978 120.0
317.221325 45.0
323.242909 117.0
327.269268 63.0
329.239353 113.0
333.204402 34.0
335.217367 36.0
335.222737 322.0
337.256151 53.0
340.238313 62.0
347.132095 56.0
352.140051 54.0
357.274587 24.0
361.264877 24.0
363.265511 24.0
367.142571 358.0
381.275013 120.0
383.288038 60.0
385.154493 513.0
398.278047 91.0
399.287475 334.0
401.272879 24.0
403.156974 1423.0
415.278582 95.0
415.286582 129.0
417.295296 217.0
417.301316 1505.0
419.322911 24.0
421.164436 480.0
422.013244 24.0
427.261769 24.0
433.305053 90.0
435.301658 80.0
435.309838 532.0
439.171067 723.0
439.179277 1501.0
443.307166 24.0
453.323249 90.0
456.178952 85.0
457.192199 1028.0
459.312313 101.0
467.168272 46.0
472.204119 43.0
475.30653 70.0
478.331212 41.0
481.277394 96.0
492.221915 22.0
495.184347 67.0
499.288886 42.0
509.183239 24.0
513.176609 65.0
513.201019 227.0
527.326831 212.0
531.20768 193.0
542.32173 24.0
545.332712 124.0
549.221732 1239.0
554.288678 44.0
555.292396 49.0
561.349999 24.0
563.352494 866.0
567.218813 425.0
577.349586 22.0
581.358066 316.0
585.221575 586.0
585.240555 5075.0
598.36418 82.0
599.378217 106.0
603.245757 483.0
609.35567 24.0
613.24549 61.0
622.366615 38.0
625.366367 25.0
627.344942 90.0
659.245116 25.0
673.398098 140.0
677.270218 59.0
691.40312 289.0
695.27487 302.0
709.410822 581.0
713.238441 25.0
713.280311 165.0
724.295242 22.0
727.414863 107.0
727.433353 934.0
731.306573 2025.0
744.462607 136.0
745.425125 315.0
749.311044 258.0
760.459204 151.0
762.462309 68.0
768.430373 25.0
790.451554 25.0
837.453078 49.0
853.469515 25.0
855.479759 211.0
862.70966 25.0
873.501501 390.0
891.500542 202.0
908.534127 46.0
929.198561 25.0
936.499012 285.0
992.542811 26.0
1001.522397 46.0
1018.542801 137.0
1019.552868 139.0
1037.54226 46.0
1037.55178 266.0
1052.56883 186.0
1053.567117 293.0
1054.581644 9759.0

