>compound 
>formula C29H42O10
>parentmass 551.28507854936
>ionization [M + H]+
>instrumentation Unknown (LCMS)
>source file:/Users/fanzhoukong/Documents/GitHub/Libgen/data/EAD_PFP/0_unknown_/spectrum.ms
>quality UNKNOWN

>ms2peaks
115.057348 847.0
116.061992 96.0
117.067815 619.0
119.081812 141.0
119.087152 563.0
121.061229 88.0
121.093569 83.0
121.101119 109.0
123.079795 48.0
125.061352 579.0
126.048175 46.0
127.055429 552.0
128.063382 1562.0
129.051926 64.0
129.063066 378.0
130.072209 72.0
131.083053 161.0
143.080903 28.0
143.084423 163.0
144.095127 79.0
145.09995 931.0
146.076283 43.0
146.111814 100.0
147.066597 456.0
149.066834 51.0
149.093144 103.0
150.044407 110.0
151.06733 176.0
152.062304 1249.0
153.060547 3546.0
154.075431 434.0
155.076594 5033.0
156.093247 252.0
157.045671 176.0
157.068981 315.0
157.083721 454.0
157.104601 402.0
158.092134 120.0
158.109374 125.0
159.080287 53.0
159.097588 422.0
159.114888 833.0
160.123591 967.0
161.118074 364.0
161.131744 366.0
163.072451 173.0
163.094981 109.0
164.062234 113.0
165.072618 1997.0
166.076001 395.0
167.082445 1411.0
168.090648 303.0
169.100601 1008.0
170.098255 87.0
171.116788 1896.0
172.104922 75.0
173.104955 110.0
173.130735 277.0
174.103988 75.0
175.064422 281.0
175.073502 378.0
175.124052 579.0
176.062595 86.0
177.087059 183.0
178.075282 961.0
179.084605 939.0
180.090209 277.0
181.101282 940.0
182.101936 129.0
183.110659 172.0
183.117289 1100.0
184.100902 99.0
185.125816 395.0
185.132486 1289.0
186.145549 93.0
187.146613 3032.0
189.071979 212.0
189.088139 210.0
189.112379 203.0
191.087076 301.0
192.091839 216.0
193.104673 527.0
194.105186 172.0
195.1151 803.0
196.123513 113.0
197.133176 1660.0
198.1399 99.0
199.114633 43.0
199.135363 228.0
199.147813 408.0
201.11989 144.0
201.14628 220.0
201.16296 262.0
202.076843 180.0
203.080757 86.0
203.090517 344.0
203.103077 281.0
203.112857 124.0
205.100213 336.0
206.108767 75.0
207.11839 545.0
208.123424 118.0
209.135107 461.0
210.145021 172.0
211.153074 528.0
212.152137 80.0
212.154987 326.0
213.126381 225.0
213.154971 182.0
215.098797 80.0
215.116037 195.0
215.144778 271.0
216.097051 55.0
217.116384 637.0
218.077337 45.0
218.112068 48.0
219.117281 372.0
220.126264 142.0
221.136108 510.0
222.136571 65.0
223.134925 164.0
223.149565 405.0
224.123758 118.0
225.130971 194.0
227.106358 86.0
227.115228 219.0
228.090651 74.0
229.131925 304.0
229.149715 155.0
230.111668 55.0
230.136918 41.0
231.114342 168.0
231.124782 168.0
232.111755 47.0
233.126239 455.0
234.139952 80.0
235.143855 391.0
235.151375 448.0
236.154409 67.0
237.132442 101.0
237.159602 355.0
238.180526 57.0
239.174859 295.0
241.114966 122.0
241.151466 63.0
243.108732 76.0
243.127082 110.0
244.124016 72.0
244.143916 44.0
245.130659 286.0
246.143993 56.0
247.147096 306.0
248.156869 76.0
249.165593 332.0
250.148476 52.0
251.12556 48.0
251.17367 89.0
253.141496 82.0
253.197627 45.0
255.138913 165.0
257.13633 112.0
258.136363 59.0
259.130477 58.0
259.144667 170.0
260.14387 34.0
261.159224 487.0
262.170247 69.0
263.17843 1208.0
265.136807 119.0
265.151157 137.0
266.163461 53.0
267.144084 116.0
269.146041 46.0
269.158921 116.0
271.142597 120.0
272.153341 58.0
273.164334 324.0
275.164311 163.0
275.177311 115.0
277.196058 1047.0
279.181265 153.0
279.202565 187.0
280.185568 43.0
281.160421 166.0
281.173581 314.0
283.144928 68.0
285.143015 58.0
285.157905 110.0
287.182972 1280.0
289.168569 110.0
289.196889 147.0
291.176085 301.0
293.180452 130.0
294.179326 47.0
295.191689 244.0
295.206829 462.0
297.189536 89.0
303.168956 116.0
304.181259 36.0
305.190143 1394.0
307.17858 85.0
307.19231 707.0
307.20431 257.0
309.190666 361.0
311.174783 83.0
311.200723 99.0
313.21031 99.0
315.179427 401.0
317.193114 47.0
319.16419 62.0
321.183507 842.0
322.19557 641.0
323.202164 4201.0
324.203267 65.0
325.216511 1361.0
327.176907 32.0
331.174141 34.0
333.191698 2500.0
335.204645 175.0
337.193051 35.0
339.192758 630.0
340.212872 196.0
341.216445 8251.0
343.208062 41.0
347.208685 56.0
349.177412 73.0
350.188615 78.0
351.204939 7598.0
352.200672 62.0
353.210716 107.0
357.213509 134.0
358.225143 46.0
359.227066 4753.0
360.234089 49.0
365.213716 90.0
367.187693 119.0
368.200206 85.0
369.21031 6540.0
371.213957 90.0
381.213991 38.0
383.226867 96.0
385.202744 42.0
387.226121 1114.0
388.229204 146.0
401.231998 132.0
404.226089 204.0
405.219382 125.0
405.233172 350.0
411.216532 98.0
433.230217 18.0
433.240407 169.0
443.204711 38.0
451.251058 192.0
461.231962 81.0
469.259209 115.0
479.245323 200.0
487.26928 326.0
491.877476 12.0
497.252004 125.0
505.283741 94.0
515.254905 228.0
524.062375 12.0
551.286827 165.0

