>compound 
>formula C33H38O16
>parentmass 713.20520613786
>ionization [M + Na]+
>instrumentation Unknown (LCMS)
>source file:/Users/fanzhoukong/Documents/GitHub/Libgen/data/EAD_PFP/0_unknown_/spectrum.ms
>quality UNKNOWN

>ms2peaks
126.046772 33.0
127.057332 34.0
128.060853 207.0
129.068293 62.0
130.069644 103.0
131.052424 171.0
132.067065 41.0
133.074305 11.0
134.094456 16.0
139.054828 75.0
140.052389 32.0
140.961599 74.0
141.073279 106.0
142.06868 34.0
143.07228 48.0
144.081781 63.0
145.061761 24.0
145.971682 27.0
146.972322 11.0
149.059193 30.0
164.056651 54.0
165.069531 205.0
166.065342 34.0
167.074262 234.0
168.081183 41.0
168.959913 27.0
170.097664 50.0
172.113335 31.0
173.106925 27.0
174.969186 82.0
175.146746 24.0
176.058047 62.0
177.056437 32.0
178.077258 132.0
179.078708 47.0
180.073789 51.0
181.061059 57.0
182.06822 27.0
183.08347 43.0
184.094901 19.0
184.121481 11.0
186.966382 24.0
187.052122 42.0
189.069913 109.0
190.065324 39.0
190.074764 63.0
191.055184 96.0
191.087694 131.0
192.081605 95.0
192.973285 62.0
194.093506 61.0
195.099286 41.0
196.959137 21.0
198.970108 94.0
200.061859 63.0
200.146399 27.0
202.07743 117.0
203.08272 37.0
203.14415 27.0
204.077911 35.0
205.086771 114.0
207.037202 98.0
208.114093 46.0
209.022363 18.0
210.972874 45.0
211.126584 18.0
214.156446 15.0
215.089276 34.0
216.978377 223.0
218.096688 29.0
219.109108 18.0
220.986619 42.0
222.97011 21.0
225.043291 43.0
226.065792 29.0
227.036012 20.0
228.966373 11.0
230.079474 51.0
231.096954 22.0
233.096805 17.0
234.982116 48.0
240.980069 48.0
242.98548 48.0
244.10761 19.0
244.983881 14.0
247.072082 14.0
248.991313 42.0
251.009554 20.0
252.976725 34.0
256.094706 25.0
257.130417 12.0
261.042469 12.0
264.00426 25.0
265.111651 96.0
266.197381 26.0
268.000142 36.0
269.080523 173.0
270.089013 26.0
271.086474 17.0
273.129055 38.0
275.997276 37.0
276.999077 132.0
279.107938 12.0
281.049039 98.0
282.059959 21.0
284.01953 12.0
287.086972 38.0
287.091952 197.0
288.998963 100.0
291.012544 37.0
297.198217 12.0
301.001689 40.0
307.008832 22.0
308.068792 12.0
312.268074 28.0
313.011155 26.0
315.089186 27.0
321.029189 24.0
330.110833 15.0
341.015678 110.0
343.015769 16.0
349.018192 59.0
353.048734 21.0
357.985997 12.0
359.020997 289.0
361.017278 36.0
364.04267 12.0
368.034742 15.0
376.120316 11.0
378.030197 93.0
379.030837 327.0
380.038498 17.0
399.099727 118.0
401.167078 27.0
418.146457 17.0
431.069193 12.0
441.066238 21.0
444.073009 12.0
457.058526 18.0
472.081083 21.0
473.090514 68.0
480.128757 62.0
491.108073 12.0
500.071147 12.0
503.070269 37.0
521.067588 45.0
521.081018 260.0
532.100493 20.0
533.063624 12.0
541.079808 48.0
545.10465 63.0
556.087505 12.0
603.203308 12.0
606.13251 12.0
616.122015 47.0
620.121167 31.0
629.143261 11.0
634.123924 50.0
634.136254 82.0
635.133254 67.0
636.654925 11.0
683.109298 17.0
683.119548 42.0
713.265863 44.0

