>compound 
>formula C16H24O4
>parentmass 281.1747402518
>ionization [M + H]+
>instrumentation Unknown (LCMS)
>source file:/Users/fanzhoukong/Documents/GitHub/Libgen/data/EAD_PFP/0_unknown_/spectrum.ms
>quality UNKNOWN

>ms2peaks
102.045775 31.0
103.060634 27.0
105.060223 38.0
105.073273 49.0
114.049617 35.0
115.055096 7954.0
116.062885 2258.0
116.717075 32.0
117.075065 8828.0
118.079934 173.0
119.086953 7728.0
120.084293 53.0
120.088593 64.0
121.062082 156.0
121.083642 940.0
121.094422 720.0
121.100892 313.0
123.041511 41.0
123.069761 168.0
123.083891 291.0
123.094761 175.0
125.031499 38.0
126.048979 458.0
127.055128 1768.0
128.064167 7265.0
129.073857 3361.0
130.079686 220.0
131.087175 1094.0
133.065214 91.0
133.086684 55.0
133.100264 42.0
137.062321 37.0
139.03857 97.0
141.072019 1325.0
142.080278 2817.0
143.090927 7217.0
144.056967 40.0
144.076957 427.0
144.095757 645.0
145.092326 8011.0
145.101766 6267.0
146.068625 71.0
146.094685 154.0
146.107705 118.0
147.082665 1557.0
147.098105 7752.0
148.093054 93.0
149.062663 5679.0
149.071023 4910.0
150.032993 79.0
150.046213 69.0
151.076332 3259.0
152.062891 2881.0
153.072031 3839.0
154.07964 2146.0
155.088119 7883.0
156.096229 2665.0
156.588628 49.0
157.096548 13525.0
158.113607 710.0
158.567217 40.0
159.114167 7927.0
160.125316 3808.0
161.076275 636.0
161.084995 2715.0
161.088715 6381.0
162.071195 46.0
162.103625 60.0
163.076684 892.0
163.079194 1967.0
163.101694 1583.0
163.119234 433.0
165.075593 3606.0
166.078972 1189.0
167.086681 5385.0
168.096151 1808.0
169.10357 3902.0
170.108899 3263.0
171.109509 8428.0
172.098898 151.0
172.123318 96.0
173.134967 4649.0
174.069467 28.0
174.101787 59.0
175.079046 3139.0
175.090716 887.0
176.070745 37.0
176.086335 63.0
177.093925 666.0
177.106965 576.0
178.079544 293.0
179.084933 1128.0
179.100683 340.0
180.091843 435.0
181.101582 3082.0
182.111501 65.0
183.120221 4162.0
184.11314 739.0
184.12643 855.0
185.126079 12985.0
186.105709 65.0
187.116058 483.0
188.121077 47.0
189.093757 1715.0
189.112617 1088.0
189.162467 100.0
190.100036 50.0
191.104895 82.0
191.108955 146.0
191.150945 111.0
193.089914 161.0
193.093984 225.0
194.112193 447.0
195.096123 54.0
195.108433 39.0
197.119591 186.0
197.130591 563.0
198.108341 403.0
198.473901 96.0
199.15487 14972.0
200.123749 83.0
200.162569 75.0
200.695129 46.0
201.122789 292.0
201.136689 418.0
201.142249 1520.0
201.161699 313.0
201.751238 33.0
202.124298 70.0
203.117147 1301.0
205.105916 55.0
205.126956 61.0
207.102955 102.0
207.121295 90.0
209.137993 1922.0
211.116102 63.0
212.123621 80.0
215.124639 51.0
215.144769 50.0
216.118649 50.0
216.169049 32.0
217.159678 5300.0
219.137547 201.0
221.114205 50.0
221.154985 59.0
225.127933 54.0
227.146121 2958.0
235.161696 154.0
235.173716 235.0
243.143611 57.0
245.157989 3534.0
263.165287 548.0

