>compound 
>formula C14H18O6
>parentmass 305.09955929756006
>ionization [M + Na]+
>instrumentation Unknown (LCMS)
>source file:/Users/fanzhoukong/Documents/GitHub/Libgen/data/EAD_PFP/0_unknown_/spectrum.ms
>quality UNKNOWN

>ms2peaks
50.014689 96.0
51.022199 206.0
52.0228 23.0
52.02986 38.0
53.038821 47.0
54.032981 7.0
55.054542 89.0
55.933903 12.0
56.962843 8.0
57.932544 6.0
60.983276 42.0
62.015787 21.0
63.023507 77.0
64.026818 8.0
65.038049 411.0
66.042069 43.0
67.05379 94.0
68.995291 98.0
69.069351 6.0
71.021443 3.0
72.935464 8.0
73.046774 11.0
74.011115 20.0
75.005525 8.0
75.020805 16.0
76.021956 6.0
76.029646 32.0
77.037487 448.0
78.044167 85.0
79.053908 150.0
80.048219 30.0
81.068149 51.0
82.00137 92.0
83.083631 6.0
85.049752 8.0
88.015854 10.0
88.030554 6.0
89.038035 79.0
90.040085 26.0
91.055226 1027.0
92.051607 83.0
92.058187 58.0
92.991067 7.0
93.058147 8.0
93.068547 13.0
94.064458 16.0
95.012189 9.0
95.050389 5.0
95.084769 18.0
95.951239 12.0
96.019379 24.0
97.02416 182.0
97.949811 8.0
99.992482 12.0
100.113992 10.0
102.032493 5.0
102.045353 32.0
103.052264 73.0
104.049125 14.0
104.062115 8.0
105.069865 79.0
106.063296 19.0
107.073577 7.0
107.083707 18.0
108.080487 6.0
109.101318 9.0
110.998389 21.0
111.041739 5.0
112.99926 52.0
114.031501 5.0
115.052682 274.0
116.058352 36.0
117.059923 54.0
118.063664 23.0
119.073834 7.0
119.085595 15.0
120.084015 14.0
120.977756 4.0
121.074746 7.0
122.097686 5.0
123.042327 11.0
125.021398 37.0
126.031149 136.0
126.90366 10.0
127.056 45.0
128.05285 21.0
128.06062 133.0
129.064741 23.0
130.066062 51.0
130.990532 21.0
131.072402 8.0
131.081352 27.0
132.020683 26.0
132.064583 8.0
133.067284 7.0
135.040835 8.0
136.052476 6.0
137.022036 29.0
139.045348 17.0
140.045198 15.0
141.066069 20.0
141.92604 12.0
142.07196 21.0
142.99591 6.0
143.03809 12.0
143.04746 20.0
143.07793 10.0
144.079201 12.0
145.082782 15.0
145.967912 35.0
146.086312 5.0
147.092073 9.0
147.966634 23.0
148.994404 7.0
149.129574 9.0
149.962155 9.0
150.037725 8.0
151.038946 52.0
151.052196 34.0
152.060406 167.0
153.052597 216.0
154.063798 31.0
154.074738 40.0
155.038068 71.0
155.049058 52.0
155.069788 13.0
156.071709 16.0
156.079049 22.0
157.06582 5.0
157.07809 14.0
157.08668 11.0
158.09634 19.0
159.091921 13.0
160.110462 9.0
161.092452 5.0
162.997894 9.0
163.055434 13.0
164.051444 7.0
164.058964 15.0
165.069335 107.0
166.023486 6.0
166.063876 10.0
166.072716 20.0
167.056336 5.0
167.075336 25.0
167.080406 11.0
168.077157 21.0
168.087317 8.0
169.046298 52.0
169.065418 6.0
169.075618 16.0
170.046358 11.0
170.096178 9.0
171.041659 11.0
172.0463 9.0
173.05515 21.0
174.070851 6.0
174.997512 10.0
176.063062 15.0
176.985853 7.0
177.004103 7.0
177.065363 6.0
178.070504 10.0
178.077054 50.0
179.077204 11.0
179.085064 22.0
180.038085 10.0
180.082795 19.0
180.991016 17.0
181.060846 5.0
181.067446 6.0
181.080646 5.0
181.100406 7.0
182.075946 10.0
182.085206 15.0
183.040867 11.0
183.087247 4.0
183.097857 6.0
184.111988 8.0
185.042288 66.0
187.006369 6.0
187.07337 10.0
189.019891 6.0
189.071061 20.0
190.066472 15.0
190.999482 30.0
191.064492 6.0
191.083442 17.0
191.999963 6.0
192.085473 9.0
192.982593 49.0
193.982784 7.0
194.094684 5.0
195.089515 7.0
196.107476 7.0
197.128096 6.0
198.125147 6.0
200.058898 6.0
201.049449 5.0
202.077249 23.0
203.07556 13.0
204.081941 12.0
204.993991 15.0
205.010821 5.0
205.087981 6.0
205.159532 9.0
206.102122 6.0
207.029973 88.0
207.086353 7.0
208.029133 15.0
208.108243 6.0
209.008014 7.0
209.032094 10.0
210.991195 6.0
211.116445 6.0
213.957037 32.0
215.073298 16.0
217.070549 6.0
218.09072 6.0
219.087201 17.0
220.112081 8.0
222.125243 7.0
223.076733 17.0
225.041635 12.0
225.147455 8.0
227.068316 116.0
229.086287 183.0
231.064029 853.0
232.112059 8.0
234.158251 9.0
236.141182 7.0
239.179694 6.0
241.098515 5.0
242.985317 11.0
244.089087 5.0
245.075728 33.0
245.551368 6.0
247.005699 8.0
247.028789 7.0
248.980341 7.0
250.962842 7.0
254.085604 5.0
259.244247 8.0
260.096698 8.0
260.137778 3.0
262.99593 6.0
265.020591 19.0
266.019862 6.0
266.995412 9.0
267.012992 8.0
271.100855 15.0
273.072237 9.0
281.052192 77.0
282.056522 18.0
283.052773 12.0
287.096806 19.0
287.121716 5.0
291.090948 3.0
299.060384 8.0
303.083756 25.0
304.094227 115.0
305.099538 9325.0

