>compound 
>formula C5H4N4O2
>parentmass 153.039844512939
>ionization [M + H]+
>instrumentation Unknown (LCMS)
>source file:/Users/fanzhoukong/Documents/GitHub/Libgen/data/NIST_MONA/0_unknown_/spectrum.ms
>quality UNKNOWN

>ms2peaks
44.9899 6.62
55.0288 39.39
56.9394 3.37
58.9414 13.03
60.9891 5.87
63.0013 6.81
72.9855 26.38
75.0024 16.09
77.018 2.51
81.0075 8.44
82.0396 16.99
84.9595 64.86
84.9977 2.26
86.9346 4.29
88.9501 3.06
88.9808 6.89
93.0129 7.61
102.9986 7.86
108.0187 4.42
110.0347 100.0
110.0933 2.45
110.2736 2.79
136.0141 53.36
153.0404 18.5

