>compound 
>formula C20H22O9
>parentmass 407.1336632851901
>ionization [M + H]+
>instrumentation Unknown (LCMS)
>source file:/Users/fanzhoukong/Documents/GitHub/Libgen/data/EAD_PFP/0_unknown_/spectrum.ms
>quality UNKNOWN

>ms2peaks
124.499527 11.0
126.045506 88.0
127.057155 160.0
128.060654 425.0
129.063662 118.0
131.05111 100.0
131.05671 119.0
134.030707 31.0
135.045386 1651.0
136.053615 389.0
137.054114 63.0
139.053421 193.0
140.06139 59.0
141.068359 421.0
142.056728 79.0
143.079037 56.0
144.065036 98.0
147.044493 44.0
163.050255 42.0
165.065363 139.0
165.067873 258.0
167.072591 119.0
168.060429 188.0
169.066468 572.0
170.067837 253.0
170.078067 188.0
171.078586 249.0
172.051195 33.0
173.060074 877.0
174.065423 105.0
175.076302 55.0
176.065391 854.0
177.062489 115.0
177.075519 86.0
178.078068 135.0
179.069047 1235.0
180.062776 231.0
181.067155 2470.0
182.074324 123.0
183.081633 42.0
184.050542 218.0
185.059291 159.0
186.0668 51.0
187.042218 145.0
187.071678 28.0
189.070716 303.0
190.071515 52.0
191.000484 89.0
191.079014 128.0
192.076953 64.0
192.978152 53.0
192.986322 73.0
194.075201 59.0
195.07956 54.0
195.10009 51.0
196.054969 39.0
197.067167 1580.0
198.068226 875.0
199.073165 1261.0
200.050164 33.0
201.057373 111.0
202.058722 55.0
203.066751 66.0
203.075131 153.0
204.08428 99.0
205.062299 37.0
207.030916 60.0
207.040796 94.0
208.034325 23.0
209.065634 375.0
210.066833 122.0
211.066152 57.0
211.078962 52.0
212.094951 67.0
213.05762 90.0
214.062589 94.0
215.074228 229.0
216.081066 84.0
217.088805 92.0
219.083763 48.0
221.061631 44.0
222.07068 22.0
223.076189 95.0
225.055787 198.0
226.062115 463.0
227.070704 1279.0
228.081543 48.0
229.082742 81.0
230.105461 37.0
231.08578 29.0
233.093038 58.0
234.064717 44.0
235.074456 70.0
236.083344 41.0
237.053683 39.0
239.066961 71.0
241.084199 72.0
241.087229 102.0
242.058638 97.0
243.064087 399.0
244.071586 110.0
245.079664 2452.0
247.074302 25.0
248.98893 65.0
250.065949 30.0
251.072348 97.0
253.045976 44.0
254.059905 56.0
255.061763 107.0
256.075012 37.0
257.085571 307.0
259.099999 91.0
263.066645 58.0
265.018233 45.0
266.039841 30.0
266.99782 45.0
267.06505 58.0
268.077769 35.0
269.081158 355.0
271.080696 47.0
273.077894 45.0
275.067781 39.0
277.074739 34.0
279.064397 51.0
279.075837 50.0
281.067745 132.0
281.074315 179.0
282.052364 46.0
282.083644 36.0
283.094753 104.0
285.08108 51.0
287.092588 113.0
292.080313 54.0
293.075642 85.0
297.067117 66.0
297.090777 48.0
302.106332 29.0
308.065945 165.0
309.079494 36.0
310.086093 92.0
311.089172 189.0
317.078695 32.0
323.083118 78.0
325.086496 62.0
335.092285 68.0
337.085753 21.0
347.181872 28.0
351.086168 43.0
353.089735 25.0
353.102615 63.0
361.179716 27.0
371.036976 51.0
371.116236 77.0
379.008407 27.0
389.121766 37.0
407.178146 184.0
407.203836 147.0

