>compound 
>formula C17H22O6
>parentmass 345.13085942648
>ionization [M + Na]+
>instrumentation Unknown (LCMS)
>source file:/Users/fanzhoukong/Documents/GitHub/Libgen/data/EAD_PFP/0_unknown_/spectrum.ms
>quality UNKNOWN

>ms2peaks
50.014304 129.0
51.023205 229.0
52.029465 66.0
53.037706 161.0
54.033286 20.0
55.054127 266.0
55.934947 12.0
56.050767 9.0
57.069668 18.0
59.929409 6.0
60.98359 30.0
62.01532 47.0
63.022271 358.0
64.027911 26.0
65.039152 1005.0
66.045572 124.0
67.052503 135.0
68.024213 16.0
68.993974 108.0
70.065674 8.0
71.048175 8.0
72.078265 9.0
74.014796 39.0
75.014327 18.0
75.022817 49.0
76.030807 88.0
77.040378 774.0
78.045348 92.0
79.055089 384.0
80.049409 52.0
81.06847 118.0
82.06468 15.0
83.050011 6.0
83.086621 11.0
84.080751 4.0
85.026582 20.0
85.049162 9.0
86.013132 12.0
87.024563 14.0
89.038344 249.0
90.042264 26.0
90.047834 39.0
91.054605 1267.0
92.056625 134.0
93.058466 14.0
93.068856 59.0
94.041026 294.0
95.053567 10.0
95.087007 12.0
95.950597 7.0
97.950128 14.0
98.094638 9.0
98.984419 9.0
100.111369 9.0
101.0378 7.0
102.04666 78.0
103.054571 156.0
104.048451 18.0
104.057441 26.0
105.066172 18.0
105.068182 52.0
106.063622 22.0
107.049563 15.0
107.061733 27.0
109.064804 19.0
110.997675 18.0
112.999576 26.0
114.042286 13.0
115.054047 462.0
116.061837 75.0
117.063428 54.0
118.043768 6.0
118.057608 35.0
119.081639 29.0
120.081119 36.0
121.06321 15.0
122.03415 260.0
123.04266 6.0
126.045772 65.0
126.902882 20.0
127.053012 121.0
128.060943 320.0
129.053923 6.0
129.067293 71.0
130.065274 75.0
131.051424 32.0
131.060374 61.0
131.070474 27.0
132.021015 13.0
132.076175 26.0
133.028075 10.0
133.074405 21.0
133.089095 16.0
133.100405 13.0
134.094546 11.0
135.081006 12.0
136.051667 8.0
137.060197 1759.0
139.052618 102.0
140.051319 33.0
141.052429 6.0
141.068729 137.0
141.92871 13.0
142.07697 42.0
143.05248 32.0
143.06185 7.0
143.07474 32.0
144.083041 35.0
145.076021 16.0
145.083101 21.0
145.967062 7.0
146.035722 16.0
147.044902 16.0
147.964573 27.0
149.043773 6.0
149.060513 30.0
150.046474 21.0
151.052524 39.0
152.061945 167.0
153.069875 82.0
154.065336 32.0
155.064016 12.0
155.072546 13.0
156.076927 14.0
156.087967 14.0
157.083337 12.0
158.091728 23.0
160.056239 18.0
161.060449 30.0
163.05952 23.0
163.06953 6.0
164.061801 49.0
165.064641 494.0
166.069262 46.0
167.081982 95.0
168.057173 28.0
168.080033 14.0
169.065753 27.0
169.077213 22.0
169.093763 13.0
170.092684 19.0
170.101624 18.0
171.040714 11.0
171.079154 7.0
172.107025 6.0
173.107045 21.0
174.066016 9.0
174.124176 5.0
175.069116 67.0
176.059487 90.0
177.066987 68.0
178.076068 161.0
179.084078 148.0
180.079169 27.0
181.045369 7.0
181.065149 151.0
182.07232 28.0
182.08553 39.0
182.09611 20.0
183.0677 19.0
183.08361 32.0
183.10217 18.0
184.107001 19.0
185.107931 11.0
186.127602 10.0
187.053602 24.0
188.062493 9.0
189.068703 133.0
190.064104 15.0
190.073564 27.0
191.074294 84.0
192.001645 7.0
192.066805 13.0
192.091245 20.0
192.978865 14.0
193.064605 18.0
193.072765 51.0
194.074536 60.0
194.096386 13.0
195.077526 58.0
196.109197 9.0
197.061037 21.0
197.092667 15.0
199.062848 6.0
200.140989 10.0
201.058119 10.0
203.06891 47.0
203.07589 52.0
204.057071 6.0
204.080861 18.0
205.065881 103.0
206.070122 20.0
207.034532 59.0
207.054262 34.0
207.066942 38.0
207.076822 29.0
208.033693 16.0
209.009773 6.0
209.059343 21.0
209.103243 12.0
210.066214 35.0
211.075504 44.0
212.081505 11.0
213.064175 7.0
213.091335 7.0
215.079386 14.0
217.065117 22.0
218.073708 11.0
218.088158 9.0
219.081718 12.0
220.118239 9.0
221.059579 87.0
222.06865 35.0
223.07416 90.0
224.081921 50.0
225.090481 76.0
226.064502 6.0
227.071612 14.0
227.108522 12.0
228.080963 25.0
229.083663 7.0
230.093024 7.0
231.077774 9.0
232.110905 7.0
233.056595 42.0
234.065665 37.0
235.076906 95.0
236.087326 13.0
237.054667 7.0
237.090857 69.0
238.063257 29.0
238.081397 14.0
239.099748 42.0
240.073238 7.0
240.088398 6.0
241.086689 20.0
242.093159 9.0
242.98567 11.0
243.08799 6.0
243.10479 24.0
244.10934 9.0
245.060721 19.0
246.072381 6.0
247.076872 13.0
248.086502 12.0
249.071893 6.0
249.090453 86.0
250.062343 10.0
251.070284 56.0
252.077134 34.0
253.087555 190.0
254.071895 7.0
254.095315 10.0
255.095706 28.0
256.110576 6.0
258.080277 12.0
261.102829 6.0
262.062979 23.0
263.07253 33.0
264.07769 23.0
265.087941 107.0
266.020221 15.0
266.079331 6.0
266.095321 28.0
267.090202 23.0
267.103022 275.0
268.104572 7.0
268.981103 12.0
269.077503 18.0
270.089223 29.0
271.097984 36.0
272.110254 20.0
273.116295 7.0
276.078856 6.0
277.087337 218.0
279.067228 39.0
279.095058 13.0
281.050899 51.0
282.051939 28.0
282.088129 9.0
283.09927 30.0
284.08746 10.0
284.10397 37.0
285.110411 193.0
286.120331 8.0
287.054012 10.0
293.081975 9.0
294.090765 206.0
295.092866 77.0
296.103426 14.0
297.117377 58.0
298.121247 16.0
299.059058 7.0
299.126808 37.0
308.103402 8.0
309.113593 582.0
311.092264 8.0
312.100414 17.0
313.106735 22.0
314.116375 31.0
315.118976 9.0
323.273 6.0
325.001421 32.0
326.109671 11.0
327.124102 89.0
329.100883 7.0
344.12549 35.0
345.15301 159.0

