>compound 
>formula C10H7NO4
>parentmass 206.044784545898
>ionization [M + H]+
>instrumentation Unknown (LCMS)
>source file:/Users/fanzhoukong/Documents/GitHub/Libgen/data/NIST_MONA/0_unknown_/spectrum.ms
>quality UNKNOWN

>ms2peaks
41.03824 1.024377
42.03338 46.691838
43.01757 22.814408
43.05331 1.952462
44.04875 94.088767
45.03267 3.404455
45.05696 84.178218
46.06477 34.050883
55.05346 1.350632
56.04889 7.859894
58.02797 1.063021
58.06494 3.617312
59.04852 3.406355
59.05777 1.325292
60.04424 100.0
61.04818 1.39181
61.98477 1.151712
64.01558 2.005043
67.99536 3.111142
68.99367 43.682057
69.03458 2.477004
69.99355 4.997086
70.06495 2.194461
72.04408 8.073385
72.99852 1.77508
73.02824 2.649951
73.93755 1.455161
74.05968 4.748752
77.038 1.25434
77.99886 1.030712
80.04896 1.475433
82.06468 1.130173
84.04556 1.104199
87.04494 1.069356
88.02127 14.782835
91.05362 9.512708
92.05617 1.078225
93.03273 1.056053
93.05618 1.074424
94.03995 2.525784
94.06492 5.832045
102.05496 1.231533
108.04444 1.450726
121.05088 82.281504
122.05457 5.254289
123.01107 1.143476
132.04416 1.875808
144.99086 1.353166
149.02396 18.403948
150.02704 1.840331
156.9865 1.317056
160.03978 14.745458
167.03418 3.728809
178.04977 1.335428
188.03468 12.822137
189.03813 1.409548
206.04544 23.905304
207.04915 2.458632

