>compound 
>formula C10H18O4
>parentmass 203.12779005842
>ionization [M + H]+
>instrumentation Unknown (LCMS)
>source file:/Users/fanzhoukong/Documents/GitHub/Libgen/data/EAD_PFP/0_unknown_/spectrum.ms
>quality UNKNOWN

>ms2peaks
50.014895 41.0
51.023783 131.0
52.029332 19.0
53.03612 28.0
54.035999 14.0
55.055388 210.0
55.935487 65.0
56.051296 8.0
56.966635 24.0
57.035425 6.0
57.070195 8.0
58.066164 7.0
59.050422 7.0
60.98408 52.0
62.015798 17.0
63.024297 75.0
64.030725 17.0
65.041184 565.0
66.043623 33.0
67.053741 105.0
68.02545 10.0
68.05777 16.0
68.996019 97.0
69.070088 43.0
70.066087 10.0
71.051876 7.0
71.929855 12.0
72.938673 11.0
74.015172 18.0
75.01385 14.0
75.02488 24.0
76.026049 7.0
76.031169 46.0
77.039007 625.0
78.037906 9.0
78.043956 89.0
79.056295 132.0
80.049733 27.0
81.070552 144.0
83.049419 21.0
83.086029 29.0
84.959127 58.0
86.015225 8.0
88.032052 16.0
89.039521 108.0
90.04622 33.0
91.055768 1585.0
92.057797 115.0
93.070025 41.0
95.084343 43.0
95.954631 13.0
96.96099 7.0
97.06713 32.0
97.10381 5.0
97.952239 14.0
98.975817 7.0
99.991986 8.0
102.047803 37.0
103.053722 85.0
104.05457 27.0
105.068299 138.0
106.067768 30.0
107.085146 20.0
108.082945 18.0
109.077173 5.0
109.099683 16.0
110.999811 8.0
111.026651 5.0
111.080331 9.0
112.997558 51.0
113.038178 10.0
114.039197 6.0
115.054095 358.0
116.049214 9.0
116.055544 25.0
117.065572 67.0
118.067211 25.0
118.077851 7.0
119.08593 144.0
120.081128 10.0
121.075067 7.0
121.102017 29.0
123.116544 6.0
125.061131 15.0
126.04683 32.0
126.903949 9.0
127.052969 75.0
128.063107 325.0
129.068336 111.0
130.068565 44.0
130.993033 13.0
131.062553 6.0
131.076003 17.0
131.088333 16.0
132.016422 12.0
132.064842 5.0
132.079452 10.0
133.10257 70.0
134.096729 12.0
139.055942 13.0
140.047701 9.0
141.070909 106.0
141.927388 10.0
142.075638 44.0
143.069887 20.0
144.077015 19.0
145.077044 13.0
145.968063 22.0
147.115981 27.0
147.96678 10.0
150.046247 16.0
151.051096 17.0
151.054706 31.0
152.064134 86.0
153.069643 31.0
154.066322 33.0
154.079682 22.0
155.06743 23.0
155.0845 10.0
156.055879 6.0
156.080349 22.0
157.065888 24.0
157.080607 27.0
157.089217 23.0
157.095347 30.0
158.079156 5.0
158.093926 29.0
159.091965 8.0
159.115445 28.0
160.089423 13.0
160.111733 7.0
160.990552 19.0
161.098702 17.0
161.132282 24.0
162.999179 9.0
163.055469 14.0
164.060228 31.0
165.071877 94.0
166.065145 15.0
166.072705 26.0
167.084194 21.0
168.074602 9.0
169.073041 25.0
170.07444 25.0
170.10638 8.0
171.063408 6.0
171.081358 7.0
172.088667 6.0
172.113087 8.0
174.043664 9.0
174.130274 11.0
175.112793 14.0
176.060401 27.0
178.070439 8.0
178.079589 26.0
179.087597 15.0
180.081376 22.0
181.077895 15.0
181.088454 13.0
182.102293 5.0
183.064602 6.0
183.089792 14.0
184.03213 6.0
184.1132 7.0
185.096809 33.0
185.119449 6.0
187.055806 10.0
187.077246 5.0
187.149596 6.0
188.123815 9.0
189.068204 19.0
190.070362 13.0
190.079822 9.0
191.002031 25.0
192.981078 17.0
194.097227 15.0
195.107105 6.0
196.111394 7.0
200.061448 7.0
202.075616 26.0
203.086464 5.0
203.140924 10.0
203.153504 18.0
203.180024 46.0

