>compound 
>formula C68H110O32
>parentmass 1456.73184237154
>ionization [M + H3N + H]+
>instrumentation Unknown (LCMS)
>source file:/Users/fanzhoukong/Documents/GitHub/Libgen/data/EAD_PFP/0_unknown_/spectrum.ms
>quality UNKNOWN

>ms2peaks
50.014197 163.0
51.021697 491.0
52.015938 13.0
52.023708 41.0
53.037598 251.0
54.033178 32.0
55.053288 418.0
56.050659 53.0
57.069559 47.0
60.98271 48.0
61.00566 28.0
62.01443 63.0
63.0167 21.0
63.02448 307.0
64.02309 16.0
64.02936 35.0
65.03745 1022.0
66.043061 117.0
67.054781 289.0
68.026511 22.0
68.053991 45.0
68.993841 261.0
70.073751 25.0
73.043612 20.0
74.015512 82.0
75.020133 110.0
76.029823 176.0
77.037663 1798.0
78.042613 381.0
79.054083 682.0
80.047524 115.0
81.070094 269.0
82.072524 53.0
83.082014 66.0
85.031855 20.0
86.015705 15.0
88.028885 24.0
89.039125 317.0
90.043966 86.0
91.053516 1839.0
92.056476 333.0
93.063036 91.0
93.069646 105.0
94.064617 134.0
95.083977 99.0
96.080987 29.0
98.070217 23.0
100.114138 17.0
101.039598 18.0
102.046498 166.0
103.052408 192.0
104.043279 60.0
105.054949 31.0
105.071019 186.0
106.067479 67.0
107.079799 80.0
108.077569 46.0
109.0943 38.0
111.00162 26.0
112.02057 22.0
113.001481 40.0
115.053861 726.0
116.057431 94.0
117.066411 184.0
118.065932 55.0
119.080382 51.0
120.080922 57.0
122.082652 14.0
122.102142 35.0
123.114183 27.0
126.048863 60.0
126.901573 19.0
127.053913 106.0
128.060734 350.0
129.068174 190.0
130.067304 106.0
130.994024 33.0
131.061294 26.0
131.071384 52.0
132.044435 42.0
132.079335 79.0
133.073065 27.0
133.090015 47.0
134.094335 32.0
135.110395 19.0
136.117725 22.0
138.043456 16.0
139.054706 131.0
140.048766 35.0
141.056876 32.0
141.073156 155.0
142.054557 58.0
142.072067 76.0
143.074517 91.0
144.080467 66.0
145.058097 25.0
145.087607 73.0
145.969197 37.0
146.067448 21.0
146.097048 27.0
147.971498 20.0
148.108568 19.0
150.049828 25.0
151.054689 61.0
152.064119 148.0
153.065999 93.0
154.072379 69.0
155.072299 48.0
156.07548 33.0
157.09168 37.0
158.09272 51.0
159.09077 30.0
160.10557 22.0
163.049261 16.0
163.065511 22.0
164.060281 29.0
165.069402 162.0
166.070242 93.0
167.075392 58.0
168.055622 28.0
168.077222 77.0
169.057842 18.0
169.078212 15.0
170.098793 27.0
171.092963 15.0
171.114753 24.0
172.113173 22.0
173.113213 17.0
174.100623 13.0
176.059204 50.0
176.121604 15.0
176.988524 25.0
177.070624 38.0
178.077094 148.0
179.073314 62.0
180.078885 45.0
180.085465 28.0
181.062225 18.0
181.075405 32.0
182.087885 19.0
182.099785 44.0
182.189675 40.0
183.036925 39.0
183.100555 21.0
184.112026 46.0
185.131616 43.0
187.145746 22.0
188.068906 18.0
189.071107 96.0
190.070537 23.0
190.155657 19.0
191.000887 68.0
191.082117 43.0
192.067857 15.0
192.092287 41.0
192.985347 59.0
194.079678 26.0
194.094708 50.0
195.089538 25.0
196.085558 16.0
196.111618 30.0
197.115718 7.0
200.067229 16.0
201.063359 18.0
202.077259 71.0
203.12444 40.0
203.14258 90.0
204.08753 22.0
205.09781 16.0
205.15112 16.0
206.09088 31.0
207.02997 103.0
208.030531 38.0
208.108261 22.0
209.015111 17.0
210.119831 14.0
210.988361 12.0
212.143941 17.0
215.089102 31.0
216.078682 13.0
216.103172 15.0
218.093603 31.0
219.098773 37.0
221.111673 25.0
224.081544 15.0
225.073954 15.0
229.077355 24.0
230.103045 24.0
231.083345 21.0
233.116046 33.0
234.116246 35.0
239.087247 19.0
241.081748 14.0
242.986798 24.0
244.107398 19.0
248.987999 22.0
250.151789 13.0
250.96898 12.0
265.020523 49.0
267.000103 39.0
273.146624 13.0
275.138415 18.0
279.101156 14.0
281.048786 94.0
282.051496 31.0
283.051016 16.0
378.313697 15.0
438.356309 19.0

