>compound 
>formula C10H12N2O3
>parentmass 209.092071533203
>ionization [M + H]+
>instrumentation Unknown (LCMS)
>source file:/Users/fanzhoukong/Documents/GitHub/Libgen/data/NIST_MONA/0_unknown_/spectrum.ms
>quality UNKNOWN

>ms2peaks
43.01702 15.88836
44.04889 22.40974
45.03217 1.181932
45.05666 4.815118
46.02836 6.403408
65.03864 37.96821
70.06467 1.177563
71.06042 1.134961
72.08844 3.608062
73.07574 2.515703
74.02342 21.71937
77.03859 56.54705
78.04185 2.904583
89.03784 7.421487
91.05383 100.0
92.04993 20.74608
93.05713 1.99574
94.0654 66.34879
95.06842 2.893659
99.00758 8.938773
103.0541 1.340324
104.0494 20.56038
105.049 1.014802
114.0661 1.267136
117.0575 25.13409
118.0654 69.76569
119.0689 4.95931
120.0445 47.4619
120.0809 1.163362
121.051 1.484516
128.0494 18.48599
130.0657 2.258998
131.0724 1.149162
132.0444 36.18767
133.0853 1.890873
136.0757 9.218417
143.0731 1.700803
144.0809 2.445792
146.0608 87.96876
146.0962 1.52821
147.0635 10.24742
150.055 5.449779
163.0869 3.756623
164.0711 1.340324
168.0376 1.13933
174.0555 8.656944
192.0659 42.61839
193.0697 5.781856
209.0927 27.7055
210.0957 3.178765
231.0753 9.924081
247.0475 6.284341

