>compound 
>formula C19H22N2O9
>parentmass 445.12175129405006
>ionization [M + Na]+
>instrumentation Unknown (LCMS)
>source file:/Users/fanzhoukong/Documents/GitHub/Libgen/data/EAD_PFP/0_unknown_/spectrum.ms
>quality UNKNOWN

>ms2peaks
50.016049 283.0
51.024257 605.0
52.029795 57.0
52.031205 198.0
53.034443 38.0
53.042293 113.0
54.040781 51.0
55.056579 380.0
55.936677 28.0
56.054697 44.0
57.067695 24.0
58.026323 11.0
60.985298 39.0
62.015496 65.0
63.023974 274.0
64.027262 60.0
65.04006 1580.0
66.045678 157.0
67.054196 443.0
68.026714 27.0
68.054994 45.0
68.996472 198.0
69.071352 71.0
70.06572 28.0
73.048764 51.0
74.016472 54.0
75.02109 66.0
76.027349 87.0
77.041177 1669.0
78.046145 268.0
79.055873 489.0
80.051061 106.0
81.071879 209.0
83.053445 16.0
83.087375 22.0
85.049891 15.0
87.021617 43.0
88.035255 23.0
89.039043 250.0
90.039231 28.0
91.053419 84.0
91.058089 1605.0
92.056357 184.0
92.060117 196.0
93.033616 88.0
93.046846 157.0
93.070466 87.0
94.066384 77.0
95.085742 98.0
95.95411 16.0
96.0885 24.0
97.015458 18.0
98.096226 24.0
99.994392 12.0
101.03643 22.0
102.046268 94.0
103.053166 204.0
104.059014 37.0
105.035612 28.0
105.070752 167.0
106.04501 36.0
107.062278 63.0
108.057926 106.0
109.082734 44.0
110.062013 21.0
111.001291 39.0
112.000529 15.0
113.003207 32.0
113.029237 45.0
114.031275 19.0
115.056633 662.0
116.062321 172.0
117.051179 55.0
117.066009 247.0
118.064447 52.0
118.074027 67.0
119.056445 79.0
119.081025 35.0
120.080493 88.0
121.023771 52.0
121.055021 166.0
121.066881 289.0
122.096269 34.0
123.082197 138.0
125.045134 39.0
126.043962 37.0
127.05671 121.0
128.059118 101.0
128.063538 301.0
129.060976 30.0
129.068766 76.0
130.061174 39.0
130.070114 107.0
130.992332 60.0
131.066352 45.0
131.074202 58.0
132.05738 23.0
133.092828 29.0
134.035896 24.0
134.098286 33.0
135.015304 499.0
136.053112 690.0
138.126858 14.0
139.063316 50.0
140.055094 28.0
141.071322 80.0
142.076071 74.0
143.077349 62.0
144.080967 75.0
145.073925 37.0
145.970863 31.0
147.059381 26.0
147.084331 21.0
148.052999 26.0
149.060737 105.0
150.045475 33.0
151.056333 67.0
151.070783 52.0
152.063351 240.0
153.067659 102.0
154.072807 77.0
155.061765 24.0
155.073955 45.0
156.077113 58.0
156.091793 38.0
157.078591 75.0
157.095781 42.0
158.07589 20.0
158.098059 69.0
159.056548 24.0
159.096098 14.0
160.050186 17.0
161.092904 29.0
162.99835 18.0
163.04838 40.0
164.049368 420.0
165.060946 79.0
165.073556 233.0
166.071874 56.0
167.069432 46.0
167.099812 24.0
168.07629 43.0
168.08646 32.0
169.082378 25.0
170.088926 59.0
171.094584 33.0
172.112222 22.0
173.049091 17.0
173.07358 12.0
174.004019 30.0
174.063469 22.0
176.058215 17.0
176.073825 56.0
177.050073 16.0
177.068323 17.0
178.063011 39.0
178.069541 115.0
179.074919 3166.0
180.083107 30.0
181.075675 21.0
181.094135 32.0
182.065673 27.0
182.096083 23.0
182.189963 15.0
183.038511 39.0
183.090211 29.0
184.035199 27.0
184.076399 28.0
186.034005 21.0
186.062065 16.0
187.038793 465.0
188.043611 16.0
189.05246 39.0
189.074029 44.0
190.080238 24.0
191.001096 93.0
191.112126 32.0
192.984202 85.0
193.089012 23.0
194.980298 26.0
195.097958 30.0
196.081626 26.0
196.113176 21.0
197.077394 16.0
198.089492 29.0
199.18575 28.0
201.028786 16.0
201.051026 21.0
202.077414 56.0
203.063162 17.0
204.0429 490.0
205.053058 13.0
205.089528 38.0
205.156878 17.0
206.102286 16.0
207.034335 155.0
208.060343 34.0
209.023721 33.0
209.035041 23.0
209.124291 25.0
211.056767 19.0
215.087749 54.0
216.087397 22.0
217.093715 22.0
218.043053 32.0
218.063303 67.0
219.059701 113.0
219.079991 88.0
221.086967 17.0
221.114647 13.0
222.120915 16.0
223.059204 13.0
225.05195 22.0
226.074468 15.0
227.066836 105.0
229.111482 22.0
230.07929 21.0
231.101238 23.0
231.209958 12.0
235.04197 14.0
238.153554 13.0
240.066721 15.0
242.080527 14.0
243.092125 15.0
247.031757 22.0
249.054403 4017.0
250.97201 25.0
251.007699 12.0
251.089959 13.0
251.967768 16.0
255.118631 21.0
261.07375 27.0
263.091016 575.0
265.015572 32.0
265.041082 283.0
267.004738 17.0
267.129618 18.0
269.041534 8.0
271.13443 13.0
273.073537 43.0
275.092703 36.0
281.051831 82.0
282.038089 14.0
282.054539 22.0
283.049107 24.0
284.053715 11.0
285.013764 13.0
295.087014 13.0
297.25337 13.0
299.154786 10.0
303.079859 17.0
306.232842 19.0
307.23995 19.0
311.113843 4082.0
312.083931 13.0
313.128339 22.0
315.083285 33.0
318.067259 38.0
319.074398 17.0
324.989826 40.0
331.073644 12.0
333.09268 3262.0
341.013045 41.0
341.025715 265.0
354.09597 14.0
355.092088 38.0
384.108361 14.0
386.092278 18.0
396.137238 19.0
399.082912 20.0
402.106307 232.0
402.118087 409.0
410.156951 17.0
413.094475 18.0
414.108543 29.0
415.115871 26.0
429.089134 50.0
430.098262 1450.0
440.034703 6.0
443.103977 121.0
443.599026 15.0
443.640286 51.0
444.123225 20.0
445.125053 8087.0

