>compound 
>formula C9H13N5O3
>parentmass 240.109115600586
>ionization [M + H]+
>instrumentation Unknown (LCMS)
>source file:/Users/fanzhoukong/Documents/GitHub/Libgen/data/NIST_MONA/0_unknown_/spectrum.ms
>quality UNKNOWN

>ms2peaks
43.02489 5.339775
45.03474 10.209141
55.02664 2.390185
56.04852 6.445871
60.05593 7.761744
81.04511 4.424385
83.05051 3.337359
84.04816 8.702562
86.03569 22.096497
95.04797 7.043417
96.05748 8.797915
97.05191 7.011633
98.06171 7.494756
107.0204 1.957917
108.0555 11.912784
109.0415 20.907762
111.0561 3.419999
112.063 3.66156
113.0487 4.386244
120.0431 10.997394
121.0519 8.874197
122.061 2.64446
123.0629 3.674274
124.0534 9.993007
125.0479 6.827284
126.0619 10.622338
127.0645 11.931854
135.0268 2.123196
136.0522 5.714831
138.07 3.191151
139.0661 2.517322
149.0473 5.981819
151.0612 8.435573
152.0605 9.598881
154.0689 5.714831
161.0487 5.282563
163.0625 5.702117
165.0666 100.0
166.0755 23.380586
168.089 22.210921
178.0667 13.93427
179.0821 37.569131
180.0912 7.850741
193.0971 4.837582
195.0796 19.369398
196.0795 2.504609

