>compound 
>formula C18H30O8
>parentmass 375.2013489234601
>ionization [M + H]+
>instrumentation Unknown (LCMS)
>source file:/Users/fanzhoukong/Documents/GitHub/Libgen/data/EAD_PFP/0_unknown_/spectrum.ms
>quality UNKNOWN

>ms2peaks
50.015358 276.0
51.021469 1082.0
52.02629 56.0
52.03053 121.0
53.038772 452.0
54.041563 18.0
55.029764 141.0
55.053024 464.0
57.035987 231.0
57.046347 471.0
57.054487 344.0
57.070767 126.0
58.042118 19.0
59.04877 57.0
61.028322 477.0
62.017984 51.0
63.023395 249.0
65.037918 1223.0
66.045919 115.0
67.05605 1392.0
69.034193 302.0
69.056173 427.0
70.047164 34.0
71.026226 110.0
71.049346 130.0
73.029848 356.0
75.013821 52.0
75.024001 35.0
76.032002 85.0
76.793273 40.0
77.040714 2013.0
78.045685 294.0
79.054556 2310.0
80.055008 105.0
80.062018 109.0
81.070569 1677.0
82.04017 59.0
83.047662 1074.0
85.028714 2219.0
86.032536 35.0
87.044987 186.0
89.03682 256.0
90.046301 37.0
90.757912 26.0
91.055862 3953.0
92.059764 253.0
93.072015 3317.0
94.037536 19.0
94.049886 91.0
94.071746 44.0
95.065348 98.0
95.078718 466.0
95.084458 629.0
96.051699 30.0
97.03058 88.0
97.04796 507.0
97.05375 381.0
99.044193 290.0
101.021376 23.0
101.039096 54.0
102.044007 57.0
103.046929 462.0
104.05975 52.0
105.070491 1629.0
106.068973 34.0
107.048854 37.0
107.067104 907.0
107.086364 274.0
108.057685 51.0
109.067157 809.0
110.075148 18.0
111.044419 181.0
111.055779 169.0
113.039452 57.0
113.057162 140.0
115.039635 152.0
115.051195 1339.0
116.045246 28.0
116.061076 149.0
117.067957 1401.0
118.067479 31.0
119.08835 1136.0
120.054571 18.0
120.092141 43.0
121.067813 1270.0
121.082903 1071.0
122.082064 36.0
123.041855 19.0
123.083155 1422.0
124.051227 43.0
125.061438 1923.0
126.046049 16.0
127.042251 1134.0
127.055501 152.0
128.063442 537.0
129.069793 702.0
130.068905 85.0
130.075605 124.0
131.076376 35.0
131.085326 1082.0
132.020157 21.0
132.087707 25.0
133.072419 137.0
133.101799 1149.0
134.07213 24.0
134.10503 35.0
135.117711 3667.0
136.094213 21.0
137.071944 213.0
137.093734 187.0
138.066965 49.0
139.075987 1420.0
141.080629 293.0
141.088779 451.0
142.073731 61.0
143.087892 193.0
144.075073 34.0
144.089193 44.0
145.051515 111.0
145.077475 509.0
145.090465 324.0
145.099895 355.0
146.090426 21.0
147.118817 2750.0
147.966029 27.0
148.088799 17.0
149.09664 35.0
149.13493 1292.0
150.579982 27.0
151.078063 2408.0
152.062194 115.0
153.084675 146.0
153.095585 353.0
153.111345 328.0
153.116186 447.0
154.076527 73.0
155.071578 176.0
155.085008 500.0
156.082079 28.0
156.093099 42.0
157.088511 166.0
157.102001 1223.0
158.079672 24.0
159.114744 779.0
159.117194 2026.0
160.075085 20.0
160.112265 19.0
161.096756 70.0
161.107956 541.0
161.116646 849.0
161.130326 415.0
162.073027 38.0
163.076039 479.0
163.086039 445.0
163.093539 435.0
164.08212 35.0
165.083762 282.0
165.096332 765.0
165.112702 237.0
166.070763 71.0
167.069574 45.0
167.083504 229.0
168.072656 47.0
168.085346 37.0
169.095287 934.0
170.090358 24.0
171.10372 56.0
171.11654 1033.0
173.091812 227.0
173.100832 606.0
173.113722 897.0
174.102434 15.0
175.113405 1655.0
176.103916 23.0
176.556597 18.0
177.121978 961.0
177.127188 3232.0
177.992649 25.0
178.081529 61.0
179.09873 38.0
179.11184 369.0
180.082022 18.0
181.089093 628.0
182.076504 34.0
182.104254 25.0
183.112986 816.0
185.102808 123.0
185.116128 592.0
185.133468 91.0
187.100691 84.0
187.114111 704.0
188.107032 20.0
189.128174 1431.0
190.081865 24.0
190.138605 20.0
191.109706 564.0
192.081928 18.0
193.126059 1386.0
195.124262 71.0
195.140682 4818.0
196.091553 24.0
197.116244 219.0
197.134124 354.0
198.110506 30.0
199.098967 194.0
199.103117 900.0
199.998458 27.0
201.12499 1306.0
202.080561 29.0
203.105402 230.0
203.112392 381.0
203.119362 433.0
205.123575 2062.0
207.136208 1348.0
209.07936 35.0
209.11902 103.0
211.111273 70.0
211.128343 207.0
213.110096 31.0
213.127246 604.0
215.131278 185.0
215.139898 372.0
215.152829 105.0
216.12097 23.0
217.124481 3158.0
219.138444 721.0
221.107816 50.0
221.126767 486.0
221.142797 104.0
223.118209 52.0
223.134299 557.0
225.131792 638.0
226.136833 26.0
227.114585 96.0
227.127865 164.0
227.141155 139.0
229.123847 482.0
231.1375 573.0
232.106581 21.0
233.119573 514.0
235.137135 2008.0
237.121158 44.0
237.139278 79.0
237.152858 186.0
239.146841 277.0
241.114223 107.0
241.121823 131.0
242.131405 17.0
243.138516 704.0
245.122229 325.0
246.01719 22.0
247.132431 375.0
249.150874 319.0
251.120087 40.0
251.134047 81.0
253.143799 219.0
255.138062 138.0
257.155885 674.0
259.088597 21.0
259.135897 201.0
259.148507 65.0
261.14884 1301.0
263.128273 240.0
265.145465 192.0
267.141528 301.0
273.148766 497.0
275.153559 98.0
275.166559 321.0
277.142881 100.0
279.158964 491.0
281.131447 30.0
281.138037 122.0
285.141952 118.0
285.148542 1075.0
291.14153 48.0
291.16326 255.0
293.172593 133.0
295.156886 33.0
297.163048 49.0
299.153991 14.0
303.159216 886.0
309.091254 28.0
309.156684 26.0
309.170484 35.0
321.17691 1216.0
327.120578 20.0
338.183493 22.0
339.185874 614.0
357.134139 30.0
357.195239 159.0
375.144663 32.0
375.173133 152.0
375.195903 280.0

