>compound 
>formula C15H20O7
>parentmass 335.11012398159005
>ionization [M + Na]+
>instrumentation Unknown (LCMS)
>source file:/Users/fanzhoukong/Documents/GitHub/Libgen/data/EAD_PFP/0_unknown_/spectrum.ms
>quality UNKNOWN

>ms2peaks
50.012647 112.0
51.019466 212.0
52.027115 66.0
53.036784 104.0
55.051053 337.0
55.931871 71.0
56.96081 32.0
59.04832 103.0
60.982007 36.0
62.012197 26.0
63.020696 292.0
65.034425 110.0
66.041624 71.0
67.050143 147.0
68.988371 67.0
68.995691 115.0
70.951719 18.0
72.935937 32.0
75.016216 98.0
76.028456 70.0
77.038885 595.0
78.043004 106.0
79.052743 190.0
80.048812 57.0
81.068762 86.0
82.063221 58.0
83.04856 299.0
85.062168 107.0
87.023126 20.0
88.028526 27.0
89.036925 176.0
90.040844 27.0
91.055993 831.0
92.051463 58.0
93.061792 66.0
94.062431 34.0
95.01398 24.0
95.08084 13.0
96.08552 23.0
97.965237 19.0
99.991446 14.0
101.057125 38.0
102.045314 59.0
103.055214 78.0
105.038732 128.0
105.071862 52.0
108.07745 45.0
109.073729 22.0
111.986286 58.0
113.002455 50.0
115.047514 43.0
115.051724 266.0
116.045793 21.0
116.058453 24.0
117.054732 98.0
117.067452 109.0
118.053151 43.0
118.068051 45.0
119.04725 17.0
119.088941 36.0
120.07664 59.0
121.071659 55.0
123.041417 22.0
123.080537 26.0
124.056256 24.0
125.057736 36.0
126.044545 47.0
127.052904 77.0
128.059723 281.0
129.061632 62.0
130.065192 96.0
131.064791 54.0
131.074891 113.0
132.013069 33.0
132.02995 53.0
132.0671 20.0
133.023499 58.0
134.036668 64.0
134.060468 38.0
139.049164 16.0
141.071073 79.0
143.073601 57.0
144.08192 30.0
145.963578 58.0
146.094969 18.0
147.965856 45.0
149.057016 16.0
149.999775 46.0
151.032164 37.0
151.052624 73.0
152.059654 91.0
153.042133 50.0
153.067583 88.0
154.069122 83.0
155.055621 26.0
155.066611 48.0
155.076361 48.0
156.05997 18.0
156.08322 71.0
157.060179 33.0
157.07492 36.0
158.091919 34.0
159.093668 38.0
159.114688 40.0
160.016797 37.0
161.022116 478.0
162.029355 327.0
163.052254 55.0
164.046984 43.0
165.058583 45.0
165.068653 199.0
166.063192 48.0
167.073391 73.0
168.079011 59.0
169.08131 78.0
170.091679 46.0
171.083288 25.0
171.119179 32.0
173.023576 712.0
174.028855 23.0
175.037044 368.0
176.057224 30.0
177.053003 61.0
177.983632 16.0
178.080362 44.0
179.060861 39.0
179.077892 51.0
180.076911 16.0
181.08135 42.0
182.071389 34.0
182.097819 24.0
183.007128 22.0
183.080018 25.0
184.082158 12.0
185.103007 20.0
187.039285 36.0
188.010554 73.0
189.019313 664.0
190.026742 79.0
191.059882 31.0
191.076132 52.0
192.079491 41.0
192.980699 50.0
193.08552 45.0
194.090039 33.0
196.005447 32.0
197.093187 34.0
198.130147 21.0
199.081355 32.0
201.015593 16.0
201.057273 25.0
202.023832 43.0
202.072563 37.0
203.033192 151.0
204.024081 25.0
205.07066 45.0
205.08329 11.0
207.032318 62.0
208.104958 28.0
211.040565 20.0
212.099275 13.0
213.051943 12.0
215.032652 78.0
215.069982 78.0
217.01529 1509.0
218.022309 1008.0
219.096929 51.0
221.090897 45.0
223.077816 29.0
223.150966 21.0
225.038344 23.0
226.078513 32.0
227.088622 22.0
228.075831 18.0
229.05182 31.0
230.018019 32.0
230.04922 18.0
231.029439 1198.0
232.034098 245.0
233.043947 3230.0
234.950095 27.0
235.011655 24.0
235.130316 11.0
236.975563 18.0
241.148431 8.0
242.986558 27.0
243.098049 55.0
245.041707 37.0
247.090116 32.0
247.125536 31.0
248.011834 44.0
250.142294 13.0
251.001392 20.0
253.188282 22.0
255.059139 19.0
257.054667 18.0
257.079788 44.0
257.087658 25.0
258.090747 9.0
259.176237 8.0
261.114945 48.0
263.118083 19.0
265.017241 35.0
267.001629 26.0
271.094256 28.0
273.076945 26.0
275.125393 42.0
277.142322 21.0
281.052088 96.0
283.047736 21.0
284.044085 19.0
285.131495 30.0
289.161992 38.0
291.149401 23.0
291.174491 8.0
299.058683 23.0
299.087493 28.0
303.08207 23.0
317.071118 83.0
317.102519 40.0
317.139149 116.0
317.170549 32.0
319.096077 8.0
333.091716 20.0
333.977314 8.0
335.124084 2134.0

