>compound 
>formula C24H24O9
>parentmass 479.13125334965
>ionization [M + Na]+
>instrumentation Unknown (LCMS)
>source file:/Users/fanzhoukong/Documents/GitHub/Libgen/data/EAD_PFP/0_unknown_/spectrum.ms
>quality UNKNOWN

>ms2peaks
50.016072 125.0
51.023593 361.0
52.031264 120.0
53.038795 88.0
55.051597 18.0
55.055227 279.0
56.048937 67.0
57.934719 7.0
61.006912 19.0
62.014923 36.0
63.024184 146.0
65.039515 542.0
66.044336 154.0
67.054467 278.0
68.035078 24.0
68.997579 114.0
71.04853 46.0
74.015143 43.0
75.016374 38.0
76.030305 84.0
77.038996 921.0
78.039637 91.0
79.054557 188.0
80.052378 127.0
81.068809 141.0
82.06324 14.0
83.086951 23.0
85.030523 32.0
87.041334 26.0
88.028445 7.0
89.040516 173.0
90.047227 70.0
91.058668 835.0
92.056949 219.0
93.06067 83.0
94.06224 74.0
95.088271 80.0
96.079532 27.0
97.066283 27.0
99.027615 32.0
101.039087 15.0
103.048908 171.0
103.053878 242.0
104.061739 29.0
105.07048 157.0
106.062901 43.0
107.008302 67.0
108.076003 48.0
109.085563 38.0
111.043375 21.0
113.001947 45.0
115.052229 123.0
116.05895 77.0
117.0584 164.0
118.042981 50.0
119.055192 43.0
120.078163 77.0
121.065634 34.0
123.082046 25.0
124.087217 7.0
126.042728 31.0
126.054828 57.0
127.049959 117.0
128.06009 340.0
129.068651 92.0
130.066652 109.0
131.049403 355.0
132.017883 21.0
132.057263 33.0
132.082043 63.0
133.066724 20.0
133.104034 37.0
134.093665 54.0
134.102735 10.0
136.112457 15.0
137.104028 18.0
138.033549 7.0
139.0517 82.0
141.070121 105.0
142.062002 81.0
143.073783 24.0
143.077293 57.0
144.056244 20.0
144.072684 32.0
144.079754 36.0
145.969666 38.0
147.045116 205.0
147.965987 13.0
151.04791 16.0
151.06116 42.0
152.060951 128.0
153.070092 68.0
154.070413 64.0
155.070313 100.0
156.075914 36.0
157.084765 32.0
158.103016 19.0
160.084958 16.0
161.061889 24.0
161.115349 21.0
162.99968 23.0
164.056971 54.0
165.068582 202.0
166.064393 31.0
166.071963 57.0
167.032794 39.0
167.069524 55.0
167.078374 112.0
169.023896 47.0
169.031546 80.0
169.057006 95.0
170.068576 34.0
170.100516 34.0
171.047287 75.0
172.094348 30.0
173.049219 15.0
173.085299 33.0
173.123969 15.0
175.077051 33.0
175.148351 33.0
176.060952 38.0
176.142842 23.0
177.054112 22.0
177.073683 32.0
178.077543 111.0
179.067214 41.0
179.076384 66.0
180.076705 43.0
181.085066 54.0
181.092966 31.0
182.084367 60.0
182.190127 39.0
183.091708 42.0
184.095189 18.0
185.041439 39.0
185.053439 54.0
186.03554 74.0
187.026931 162.0
187.041671 1421.0
188.049202 18.0
189.071533 142.0
190.064234 19.0
190.999965 87.0
191.089335 39.0
192.080516 38.0
192.978976 68.0
192.985806 55.0
193.104206 28.0
194.096507 21.0
195.066718 42.0
195.095448 56.0
196.081869 12.0
197.0639 29.0
197.11065 23.0
199.036692 8.0
200.066282 37.0
201.073503 40.0
202.079084 126.0
203.077395 65.0
203.147205 47.0
204.082366 40.0
205.085607 42.0
205.109457 38.0
206.089908 20.0
207.037449 74.0
207.096649 23.0
208.036629 24.0
209.0311 19.0
209.10901 33.0
210.123101 13.0
211.061362 27.0
211.094112 21.0
211.983183 19.0
213.068534 19.0
214.059195 28.0
215.070845 44.0
215.089515 33.0
215.134056 23.0
216.092066 32.0
217.094067 15.0
218.127298 21.0
219.077449 38.0
221.103361 40.0
222.096452 36.0
223.074202 24.0
223.129812 16.0
225.043524 27.0
226.060145 19.0
226.077815 48.0
227.071666 84.0
229.040718 20.0
229.110388 31.0
231.101649 26.0
231.123989 8.0
233.110481 21.0
234.119652 25.0
235.096483 109.0
237.071275 25.0
237.096925 8.0
239.089176 29.0
241.047188 44.0
241.060868 28.0
242.070329 30.0
243.059 43.0
244.077211 36.0
244.115471 8.0
246.164622 21.0
247.127713 15.0
248.988425 22.0
249.146115 25.0
250.978707 17.0
252.105128 23.0
255.12543 8.0
257.078772 36.0
259.170474 8.0
261.088565 14.0
262.204106 8.0
265.019329 33.0
266.02177 24.0
267.026131 38.0
267.992291 24.0
269.082292 11.0
270.126203 18.0
271.073744 35.0
273.082256 12.0
275.114428 23.0
277.111739 24.0
277.180229 13.0
279.212851 8.0
281.054133 76.0
282.055174 34.0
283.054714 26.0
285.070646 23.0
285.103726 8.0
287.090448 9.0
289.18231 9.0
291.089571 16.0
295.176915 20.0
297.073397 104.0
300.059309 14.0
300.074559 25.0
301.09361 14.0
303.049882 36.0
307.154835 14.0
309.130697 52.0
313.068471 19.0
314.053761 49.0
314.081531 30.0
315.091022 5362.0
317.071254 61.0
317.205594 23.0
318.384365 11.0
325.107211 11.0
329.040284 38.0
330.078865 17.0
331.079866 1169.0
333.098918 267.0
335.09004 73.0
336.01417 8.0
339.043163 8.0
340.200364 11.0
341.066425 9.0
343.073897 8.0
347.08101 30.0
351.216024 14.0
356.057308 21.0
356.072078 8.0
361.177402 21.0
373.124553 18.0
377.095596 19.0
381.28466 8.0
385.087303 11.0
387.067955 14.0
389.094267 12.0
398.217564 8.0
401.155277 19.0
403.129559 13.0
407.270612 53.0
415.204909 34.0
417.125381 12.0
419.204733 42.0
425.302088 9.0
429.110681 8.0
433.131925 19.0
434.131506 13.0
435.140416 161.0
436.393988 8.0
443.109383 11.0
444.896985 8.0
449.178209 8.0
461.111479 54.0
461.132529 84.0
461.222989 36.0
477.117503 95.0
477.534833 34.0
478.130134 1209.0
479.137435 11612.0

