>compound 
>formula C59H96O26
>parentmass 1243.6082042028995
>ionization [M + Na]+
>instrumentation Unknown (LCMS)
>source file:/Users/fanzhoukong/Documents/GitHub/Libgen/data/EAD_PFP/0_unknown_/spectrum.ms
>quality UNKNOWN

>ms2peaks
50.014663 101.0
51.021466 327.0
52.026298 35.0
53.038781 116.0
55.050126 35.0
55.054486 158.0
57.070041 22.0
60.987021 55.0
62.014153 38.0
63.021856 198.0
64.029068 39.0
65.039521 1098.0
66.041963 51.0
67.052866 146.0
68.99434 130.0
74.015173 46.0
75.012155 58.0
75.020645 46.0
76.032898 114.0
77.03989 677.0
78.038803 122.0
78.047463 81.0
79.053725 320.0
80.052418 55.0
81.06267 81.0
82.065953 11.0
85.00348 14.0
86.013512 21.0
87.018545 29.0
88.028497 15.0
89.03873 225.0
90.043572 49.0
91.054985 1915.0
92.057957 131.0
92.98799 12.0
93.05885 62.0
93.06736 23.0
94.064212 64.0
95.065415 35.0
95.081655 52.0
95.953857 15.0
99.991237 15.0
101.04213 11.0
102.046062 93.0
103.050985 91.0
104.052837 50.0
105.07058 138.0
106.064012 52.0
107.070235 25.0
109.076459 29.0
111.001164 35.0
112.007667 21.0
113.002059 50.0
115.055494 282.0
116.061177 80.0
117.064879 113.0
118.069712 58.0
119.076694 26.0
120.081517 27.0
121.085169 19.0
122.086502 32.0
123.087614 14.0
126.043971 45.0
127.053414 83.0
128.061336 333.0
129.056559 47.0
129.066569 80.0
130.064551 89.0
130.991274 36.0
131.061904 27.0
132.014646 33.0
132.084456 21.0
133.072549 19.0
133.084979 38.0
134.071131 15.0
135.088254 15.0
137.037669 11.0
139.055334 47.0
140.050576 22.0
141.069149 91.0
141.924451 28.0
142.064521 21.0
142.076211 25.0
144.069356 31.0
145.076438 31.0
145.969841 31.0
150.045671 21.0
151.056533 40.0
152.059946 119.0
153.070288 69.0
154.065741 84.0
155.057113 15.0
155.075403 43.0
156.070006 31.0
156.078586 23.0
157.082518 45.0
157.092348 38.0
158.083531 25.0
158.095841 57.0
159.076593 19.0
159.112433 31.0
160.104986 22.0
162.100651 24.0
163.052433 49.0
164.050925 22.0
165.056238 42.0
165.068828 224.0
166.0621 31.0
167.071013 32.0
167.079873 46.0
168.075365 34.0
169.069998 30.0
169.083998 55.0
170.07393 37.0
172.112585 23.0
173.108758 11.0
175.056583 23.0
177.055687 24.0
177.165198 14.0
178.0765 67.0
179.074012 36.0
180.084855 24.0
181.089297 31.0
182.08992 35.0
183.033662 18.0
183.094622 31.0
184.094135 19.0
188.060225 11.0
189.067787 36.0
190.06182 28.0
190.998892 54.0
191.082852 29.0
192.074015 37.0
192.971127 36.0
192.983367 50.0
193.093607 37.0
194.08316 57.0
195.072502 22.0
196.108235 20.0
197.112347 10.0
200.099854 14.0
201.064087 17.0
202.071049 29.0
203.080512 16.0
204.075694 16.0
205.074717 17.0
205.154697 12.0
207.030732 83.0
208.034124 33.0
208.110434 16.0
209.004536 17.0
210.124869 16.0
212.154714 24.0
215.089872 20.0
217.074196 18.0
218.100179 22.0
221.094996 17.0
226.079669 21.0
230.097919 13.0
234.139549 24.0
239.085041 12.0
242.98152 21.0
246.120458 22.0
248.990405 14.0
250.98536 28.0
252.093113 11.0
254.087968 12.0
259.13622 15.0
263.15403 6.0
265.018195 15.0
265.029365 13.0
267.00261 22.0
269.005635 17.0
276.113502 19.0
281.044785 118.0
282.050737 37.0
283.040399 13.0
317.317854 18.0
493.153929 14.0
727.438378 14.0
917.476568 22.0
963.504151 15.0

