>compound 
>formula C14H18O5
>parentmass 267.12270467799004
>ionization [M + H]+
>instrumentation Unknown (LCMS)
>source file:/Users/fanzhoukong/Documents/GitHub/Libgen/data/EAD_PFP/0_unknown_/spectrum.ms
>quality UNKNOWN

>ms2peaks
67.054007 22.0
79.055006 31.0
91.057334 61.0
101.040687 24.0
102.017899 66.0
102.045609 56.0
102.067379 47.0
103.061472 25.0
104.062374 62.0
105.068116 23.0
107.046461 71.0
107.079911 32.0
110.246498 32.0
115.05714 4483.0
115.426271 32.0
116.037512 28.0
116.059672 226.0
116.073392 87.0
116.833484 36.0
117.057004 83.0
117.069724 773.0
117.867096 41.0
118.617018 36.0
119.037759 34.0
119.067689 107.0
119.074099 154.0
119.086929 1466.0
119.40893 27.0
120.642073 29.0
121.003884 29.0
121.053454 33.0
121.068544 389.0
122.058986 42.0
122.074136 77.0
123.042598 44.0
123.058898 66.0
124.056351 57.0
125.039193 62.0
125.063293 99.0
125.835735 53.0
126.045715 898.0
127.054068 1052.0
127.394389 38.0
128.04093 39.0
128.05645 497.0
128.062 3374.0
128.08306 160.0
128.434761 34.0
128.608011 33.0
129.063892 77.0
129.096163 27.0
130.070805 78.0
131.047997 226.0
131.065947 173.0
131.273498 43.0
132.06373 166.0
132.685901 23.0
133.085652 194.0
134.076344 42.0
135.085517 619.0
135.442127 87.0
135.520808 23.0
136.076759 47.0
136.090459 128.0
137.081931 479.0
137.094551 1237.0
138.063204 149.0
138.068954 99.0
138.594345 44.0
139.045636 293.0
139.061816 1092.0
139.074526 333.0
140.067508 100.0
140.558349 38.0
141.073341 2617.0
141.605562 30.0
141.835322 48.0
142.079263 1711.0
142.522144 31.0
143.072355 949.0
143.086415 7922.0
143.603646 28.0
143.816207 24.0
144.061858 545.0
144.075958 4988.0
144.616179 70.0
145.08661 40146.0
145.673641 53.0
145.821492 85.0
146.075932 15499.0
146.587863 103.0
146.599713 156.0
146.615144 78.0
146.622254 71.0
147.084045 39314.0
147.851356 76.0
148.075387 952.0
148.089677 3741.0
148.458278 55.0
148.489328 63.0
148.547808 70.0
148.624248 47.0
148.673208 81.0
148.767589 25.0
148.839289 65.0
149.095159 11105.0
149.600371 38.0
149.687841 41.0
149.802931 49.0
149.874891 58.0
150.069222 874.0
150.101632 62.0
150.554443 38.0
150.573663 81.0
150.594113 43.0
150.627773 38.0
150.857513 32.0
151.089814 27498.0
151.705745 52.0
151.768496 51.0
151.855406 57.0
152.063106 2046.0
152.448717 40.0
152.526137 48.0
152.658038 47.0
153.073469 5473.0
153.61208 24.0
154.077461 1852.0
154.697012 34.0
155.088373 12541.0
156.057326 94.0
156.096486 483.0
156.362196 37.0
156.520247 38.0
156.588897 161.0
156.772817 40.0
157.068568 25044.0
157.548979 136.0
157.577249 108.0
158.07692 31972.0
158.583542 111.0
158.705692 38.0
158.883472 47.0
159.082323 25866.0
159.555914 207.0
159.779954 57.0
159.824544 23.0
160.056205 26219.0
160.616886 190.0
160.795717 37.0
160.855347 77.0
161.059177 653.0
161.079057 36506.0
161.681389 53.0
162.06652 23.0
162.10394 8558.0
162.522031 45.0
162.629451 66.0
162.790661 54.0
162.870642 57.0
163.090772 11373.0
163.668013 26.0
163.810914 25.0
164.089364 1840.0
164.501215 66.0
164.548975 162.0
164.557785 63.0
164.576626 59.0
164.719926 46.0
164.863276 36.0
165.094807 36191.0
165.857209 44.0
165.900099 19.0
166.023779 50.0
166.041449 45.0
166.054079 42.0
166.095739 36.0
166.147489 63.0
166.190449 37.0
166.215699 36.0
166.30284 26.0
166.37866 20.0
166.46712 68.0
166.60112 40.0
166.68839 50.0
166.737701 27.0
166.889541 49.0
167.073111 2311.0
167.384742 41.0
167.711893 32.0
168.081264 1003.0
168.335384 56.0
169.052976 36.0
169.073356 87.0
169.091196 123.0
169.133236 41.0
170.072218 102.0
171.082961 3812.0
171.565082 74.0
172.090283 13913.0
173.097995 20642.0
173.795967 25.0
173.826967 38.0
174.091828 19696.0
174.495349 270.0
174.504419 200.0
174.518639 295.0
174.538049 360.0
174.701159 60.0
174.765909 68.0
174.8501 47.0
174.87341 30.0
175.07944 57417.0
175.887922 45.0
176.085462 11677.0
176.404083 73.0
176.471753 60.0
176.587594 33.0
177.111295 11460.0
178.096967 228.0
179.11028 21180.0
180.114642 127.0
181.087534 5722.0
183.091529 25.0
187.116548 3264.0
188.08665 4319.0
188.460321 31.0
189.092923 33515.0
190.100555 31626.0
190.731827 92.0
191.068857 86.0
191.079677 158.0
192.08307 157.0
193.095892 1125.0
193.113572 3998.0
194.093615 32.0
202.099843 71.0
203.107986 2506.0
204.114428 29.0
205.12618 36075.0
205.793152 90.0
206.091193 38.0
206.296573 30.0
206.430253 64.0
207.105005 31438.0
207.799207 65.0
207.845807 59.0
208.112797 2412.0
209.07774 11.0
212.448287 83.0
212.833988 44.0
215.844355 64.0
217.093958 31.0
220.109505 26.0
221.123668 1106.0
221.94602 33.0
222.885432 129.0
223.563083 46.0
224.112705 36.0
224.376755 32.0
225.128677 129.0
225.781769 78.0
227.136562 108.0
227.535363 11.0
230.47356 20.0
231.107541 32.0
231.456162 57.0
234.091138 19.0
234.456999 52.0
236.442674 29.0
237.478656 646.0
238.483628 23.0
239.13459 26.0
239.645381 30.0
240.740014 80.0
241.136895 55.0
241.616316 55.0
243.193369 30.0
244.308332 32.0
244.404822 12.0
246.602817 27.0
247.92141 65.0
248.291741 27.0
248.798302 51.0
249.110533 79.0
249.122903 54.0
250.031355 34.0
251.099768 71.0
251.177388 39.0
251.281418 12.0
251.621619 15.0
251.93406 12.0
253.232503 12.0
254.815697 54.0
255.059707 37.0
255.264688 24.0
256.052569 15.0
256.763171 12.0
258.048814 18.0
259.800098 41.0
259.847468 12.0
260.051229 2842.0
260.259789 12.0
261.267482 12.0
262.224734 33.0
262.699275 12.0
263.684627 12.0
265.536292 29.0
267.114205 78.0
267.120615 141.0
267.162245 35.0

