>compound 
>formula C20H28O9
>parentmass 435.1625534785701
>ionization [M + Na]+
>instrumentation Unknown (LCMS)
>source file:/Users/fanzhoukong/Documents/GitHub/Libgen/data/EAD_PFP/0_unknown_/spectrum.ms
>quality UNKNOWN

>ms2peaks
50.014023 91.0
51.022916 346.0
52.028468 75.0
53.038121 82.0
54.034423 12.0
54.043073 14.0
55.053086 180.0
55.933908 13.0
56.048988 12.0
57.070101 18.0
57.933283 6.0
60.984021 50.0
62.015753 45.0
63.023476 129.0
64.026778 9.0
65.040381 851.0
66.042823 52.0
67.054546 214.0
68.048898 10.0
68.99441 170.0
70.065303 7.0
71.050275 12.0
73.04586 10.0
74.013563 30.0
75.014785 9.0
75.022415 28.0
76.023578 7.0
76.029558 42.0
77.03911 685.0
78.042343 100.0
79.053805 349.0
80.050748 40.0
81.07158 78.0
82.064253 13.0
85.02885 20.0
86.014502 9.0
89.03882 151.0
90.046452 27.0
91.054145 1370.0
92.053347 79.0
93.06084 33.0
93.07029 29.0
94.066202 23.0
95.050235 9.0
95.951077 14.0
97.02883 7.0
97.10025 7.0
97.947702 9.0
99.994277 15.0
101.03829 18.0
102.047162 57.0
103.054075 103.0
104.060937 17.0
105.07068 120.0
106.063112 16.0
107.070335 12.0
107.085545 19.0
109.025419 9.0
110.034252 22.0
111.042564 144.0
112.004677 7.0
113.002169 46.0
114.004092 7.0
114.044892 13.0
115.055614 618.0
116.056027 70.0
117.058639 9.0
117.068179 513.0
118.064512 33.0
119.056504 9.0
119.074684 15.0
119.085374 52.0
120.080567 24.0
121.057269 7.0
121.065889 21.0
121.101459 12.0
122.032512 10.0
122.095282 11.0
123.005154 12.0
126.047401 31.0
127.056854 157.0
128.062586 519.0
128.903158 10.0
129.068929 257.0
130.065811 56.0
130.079221 8.0
130.995874 20.0
131.048584 6.0
131.075504 38.0
131.086714 15.0
132.018156 19.0
134.096231 12.0
135.080404 9.0
136.111626 7.0
139.054324 27.0
140.051866 19.0
141.070439 247.0
141.928091 12.0
142.077521 125.0
143.087024 122.0
144.082446 18.0
144.091846 15.0
145.067138 137.0
145.967631 32.0
146.090731 9.0
147.078713 19.0
147.967526 12.0
148.044996 7.0
148.049756 42.0
149.061078 46.0
149.076608 32.0
149.096948 34.0
150.047031 22.0
151.031423 12.0
151.055503 112.0
152.062516 357.0
153.061958 21.0
153.074078 75.0
153.086208 18.0
154.068341 44.0
155.031663 918.0
156.079956 26.0
156.092196 16.0
157.065488 10.0
157.102328 242.0
158.072611 19.0
158.092301 22.0
159.066873 21.0
159.086643 39.0
160.102686 8.0
161.053588 6.0
161.078438 24.0
161.098328 76.0
162.07712 13.0
163.076373 445.0
164.044815 13.0
164.053605 21.0
164.073675 8.0
165.070238 336.0
166.07742 65.0
167.085113 1508.0
168.055215 9.0
168.079345 16.0
169.048508 168.0
170.07283 44.0
170.09072 14.0
171.079753 69.0
171.098963 15.0
172.069065 7.0
172.108915 9.0
173.058668 12.0
173.097328 10.0
173.108928 8.0
174.06791 10.0
174.12736 10.0
175.074893 26.0
175.109893 41.0
175.117673 18.0
176.045795 8.0
176.063985 13.0
176.074385 14.0
177.051957 22.0
177.070208 61.0
177.089778 64.0
178.06753 46.0
178.08453 12.0
179.063712 18.0
179.075512 22.0
179.108283 9.0
180.067945 15.0
180.082415 14.0
180.173125 7.0
181.048617 16.0
181.085527 15.0
182.08614 8.0
182.1007 9.0
183.081562 27.0
183.093492 9.0
184.089015 11.0
184.102305 12.0
185.097877 1803.0
186.07744 9.0
186.09614 6.0
187.074312 20.0
188.068465 11.0
188.079225 13.0
189.070667 22.0
189.084137 52.0
190.05798 12.0
191.005872 21.0
191.024802 12.0
191.062742 9.0
191.077612 9.0
192.036205 13.0
192.068785 8.0
192.076935 22.0
192.982207 37.0
193.067947 9.0
193.091097 8.0
193.997389 6.0
194.07926 8.0
194.09564 8.0
195.089112 248.0
195.094582 251.0
196.097465 12.0
197.100167 8.0
198.044769 9.0
198.13162 7.0
199.075922 47.0
200.061254 7.0
201.053197 15.0
201.092087 18.0
202.061519 7.0
202.072649 19.0
203.105862 689.0
204.081504 21.0
205.087557 23.0
205.101577 12.0
205.131037 6.0
205.160507 17.0
206.089039 9.0
207.036582 93.0
207.049272 17.0
208.030114 12.0
208.086634 8.0
209.004756 6.0
209.011836 8.0
210.032789 6.0
213.091987 1353.0
214.099909 6.0
215.067101 7.0
215.082911 18.0
216.073924 10.0
216.081124 13.0
216.094084 7.0
217.085976 389.0
218.093169 29.0
219.069341 17.0
219.096881 81.0
220.076744 16.0
220.113084 8.0
221.117056 47.0
223.107011 7.0
225.039716 8.0
227.106241 7.0
228.077184 7.0
229.084336 31.0
230.087739 11.0
231.105261 1385.0
232.090684 9.0
233.079716 25.0
233.117106 28.0
234.088828 68.0
235.061081 8.0
235.086601 11.0
235.095611 45.0
235.112131 9.0
237.073446 6.0
242.096908 8.0
242.98788 13.0
243.100891 35.0
244.106963 23.0
245.116626 278.0
246.122248 9.0
247.097571 17.0
248.097993 5.0
249.114336 2234.0
250.160628 6.0
250.96698 11.0
251.125311 6.0
253.080465 7.0
256.106583 6.0
257.117175 29.0
258.077838 6.0
258.088858 10.0
259.09707 60.0
259.13491 8.0
260.089843 6.0
260.104063 19.0
261.101955 7.0
261.111445 60.0
263.13044 907.0
265.026435 23.0
265.069495 14.0
266.017747 9.0
267.00127 32.0
267.01729 15.0
271.0971 51.0
272.102902 6.0
273.108945 149.0
274.115207 20.0
275.12983 184.0
276.100772 19.0
277.102735 19.0
279.08269 29.0
280.093342 10.0
281.141985 3364.0
282.051047 13.0
283.048909 10.0
284.043602 6.0
285.114465 59.0
286.114437 7.0
287.096229 25.0
287.10953 99.0
287.12281 126.0
288.101322 7.0
289.104864 144.0
290.115127 7.0
291.082039 9.0
291.118789 18.0
291.125499 26.0
293.074324 6.0
293.101154 22.0
294.106617 6.0
299.127569 13.0
300.134832 11.0
301.108074 88.0
302.116957 53.0
303.125809 5362.0
304.126112 106.0
304.136332 77.0
304.616593 6.0
305.102374 17.0
305.133164 10.0
307.117969 10.0
309.105744 7.0
310.065826 6.0
315.123239 27.0
317.103594 17.0
317.143694 18.0
318.110916 7.0
319.121629 476.0
321.135524 261.0
323.109988 14.0
323.127599 17.0
327.117808 8.0
327.130228 25.0
329.135453 26.0
330.184836 6.0
331.116478 19.0
331.155688 17.0
333.101683 13.0
333.130273 52.0
335.112518 7.0
343.127548 10.0
343.151138 18.0
344.1245 6.0
345.130153 63.0
347.103938 15.0
347.145908 11.0
349.130923 654.0
350.140235 20.0
355.112568 6.0
357.133143 18.0
359.113067 6.0
359.146478 77.0
360.15527 35.0
361.131932 13.0
363.147167 10.0
367.104327 8.0
371.114987 15.0
373.131352 36.0
373.163512 17.0
374.138735 7.0
375.145577 221.0
376.15946 14.0
377.117652 11.0
385.109592 19.0
385.123052 32.0
387.146217 20.0
389.134102 11.0
389.147622 23.0
389.159222 39.0
391.134817 36.0
391.169697 9.0
399.153756 10.0
401.160411 22.0
403.140636 743.0
404.150289 19.0
405.153311 212.0
405.180931 13.0
407.149286 6.0
407.173026 69.0
415.146286 6.0
417.154681 125.0
419.135826 85.0
433.14755 90.0
433.679842 16.0
433.708402 17.0
433.724732 44.0
434.155303 79.0
434.173673 37.0
435.168305 7887.0

