>compound 
>formula C17H20O5
>parentmass 327.12029474245
>ionization [M + Na]+
>instrumentation Unknown (LCMS)
>source file:/Users/fanzhoukong/Documents/GitHub/Libgen/data/EAD_PFP/0_unknown_/spectrum.ms
>quality UNKNOWN

>ms2peaks
50.017876 417.0
51.025371 793.0
52.021015 54.0
52.028785 138.0
53.04197 1330.0
54.036114 76.0
55.057669 307.0
56.055773 44.0
57.035468 39.0
57.073208 22.0
58.031863 25.0
59.053437 42.0
60.049772 1857.0
60.987857 59.0
61.009286 20.0
62.016511 52.0
63.026536 386.0
64.03454 121.0
65.045005 1735.0
66.049049 641.0
67.019874 15.0
67.056774 325.0
68.016369 63.0
68.030108 70.0
68.995803 103.0
70.032238 168.0
71.087962 18.0
72.940052 25.0
74.019916 73.0
75.018601 120.0
76.032515 935.0
77.04465 1026.0
78.044424 342.0
79.056749 814.0
80.054553 191.0
81.037458 410.0
82.068062 32.0
83.069457 23.0
85.056136 34.0
86.002851 22.0
87.020596 17.0
88.04157 344.0
89.043535 353.0
90.038149 53.0
90.046519 104.0
91.057924 1692.0
92.054308 2090.0
93.055163 57.0
93.067443 625.0
93.460051 18.0
94.065227 494.0
95.051142 178.0
95.055912 109.0
96.054667 28.0
96.080597 16.0
97.067331 42.0
98.987701 1948.0
99.998025 27.0
101.04303 23.0
102.039034 194.0
102.042994 122.0
103.045889 560.0
104.056683 113.0
105.060368 150.0
105.072418 181.0
106.052723 2210.0
107.053807 431.0
108.074862 31.0
109.031196 435.0
110.999846 24.0
113.004845 67.0
115.056174 634.0
116.059728 44.0
117.065523 136.0
118.043728 54.0
118.058628 130.0
119.048452 62.0
120.048837 1095.0
121.042631 62.0
121.065271 659.0
122.050266 42.0
122.065426 366.0
123.043611 45.0
123.06969 31.0
123.0849 39.0
125.05331 21.0
125.06975 16.0
126.031274 31.0
126.049974 51.0
127.056109 131.0
128.052953 40.0
128.066253 263.0
129.072598 73.0
130.042673 65.0
130.051613 122.0
130.059423 48.0
131.039897 121.0
131.044407 202.0
131.057847 57.0
132.072492 45.0
133.053726 115.0
133.069556 252.0
134.035211 68.0
135.045356 105.0
135.057866 93.0
136.03984 19.0
137.054055 22.0
138.058219 23.0
139.037154 40.0
140.048549 24.0
141.071733 122.0
141.929388 16.0
142.065968 56.0
143.082422 55.0
144.073107 34.0
145.042431 39.0
145.101441 45.0
146.063566 34.0
147.044301 84.0
147.1144 13.0
148.042635 1452.0
149.04434 152.0
149.05151 1141.0
150.037414 21.0
150.053024 94.0
150.057814 193.0
151.053069 87.0
151.063899 132.0
152.063683 171.0
153.071598 108.0
154.069483 54.0
154.079203 35.0
155.071817 41.0
155.087687 51.0
156.072512 25.0
156.081082 39.0
156.094542 21.0
157.098526 48.0
158.028141 114.0
158.114351 27.0
159.044476 17.0
159.112445 27.0
160.05046 26.0
161.047175 69.0
161.058375 685.0
163.044884 5080.0
164.052109 55.0
165.072523 200.0
166.062008 52.0
166.074638 42.0
167.073442 55.0
167.084842 103.0
168.060007 20.0
168.086687 22.0
169.053301 31.0
169.082591 26.0
169.101711 52.0
170.076346 26.0
171.08453 31.0
171.11914 20.0
173.05573 22.0
174.054604 45.0
174.999339 106.0
175.020069 202.0
175.458377 48.0
175.477847 26.0
176.044084 5805.0
177.043708 314.0
177.058058 114.0
177.727375 21.0
178.052713 2466.0
179.033107 38.0
179.067197 51.0
179.098667 44.0
180.083242 52.0
181.081086 18.0
183.035986 38.0
183.079716 21.0
185.053355 104.0
186.056829 31.0
187.056304 21.0
189.071413 32.0
189.082193 44.0
190.054638 74.0
191.002533 28.0
191.070212 43.0
191.087822 21.0
192.024697 29.0
192.982892 35.0
193.044162 172.0
194.052656 2678.0
195.091141 37.0
196.126935 15.0
197.05682 30.0
197.0678 22.0
197.1022 51.0
198.108824 16.0
199.082079 21.0
200.068814 26.0
202.052353 32.0
202.057923 65.0
203.091067 28.0
203.128757 31.0
203.148317 27.0
204.068082 444.0
205.067077 38.0
205.163876 22.0
207.035726 69.0
207.046996 82.0
207.058276 98.0
208.05606 19.0
209.052005 28.0
209.98219 34.0
211.079494 51.0
213.092453 19.0
215.083362 17.0
217.064762 212.0
218.044386 82.0
219.11035 22.0
220.056795 32.0
220.090235 19.0
221.0723 52.0
222.082824 88.0
223.079569 17.0
225.106198 29.0
225.126768 19.0
227.077027 15.0
227.180377 14.0
229.046067 12.0
230.050881 17.0
231.104046 47.0
231.139795 21.0
232.11632 19.0
235.068804 103.0
235.077824 295.0
236.106288 16.0
237.093253 32.0
237.129443 16.0
237.161133 33.0
239.115782 43.0
240.092307 24.0
242.991081 12.0
245.10142 19.0
245.156639 23.0
247.045329 18.0
247.237838 33.0
248.062594 3038.0
249.092778 18.0
250.994968 23.0
253.117896 28.0
257.076355 16.0
259.101774 15.0
259.134884 23.0
263.097012 39.0
263.109712 41.0
265.122031 33.0
266.016037 38.0
267.103621 16.0
267.15003 31.0
273.188088 19.0
276.085902 17.0
277.149826 22.0
281.077635 3970.0
282.05404 20.0
283.093124 19.0
291.15521 22.0
291.19699 18.0
294.097824 58.0
295.153789 30.0
299.067828 21.0
300.030842 18.0
309.129303 25.0
317.949535 12.0
327.113516 32.0
327.127706 252.0

