>compound 
>formula C12H12O5
>parentmass 237.07575448461
>ionization [M + H]+
>instrumentation Unknown (LCMS)
>source file:/Users/fanzhoukong/Documents/GitHub/Libgen/data/EAD_PFP/0_unknown_/spectrum.ms
>quality UNKNOWN

>ms2peaks
50.012637 681.0
51.021556 1966.0
52.028525 570.0
53.002534 24.0
53.011094 36.0
53.023934 67.0
53.032494 28.0
53.038914 41.0
54.007173 6.0
54.030934 9.0
54.036694 8.0
55.016153 203.0
55.053223 50.0
55.933321 19.0
56.052812 5.0
56.96006 18.0
57.068051 151.0
57.932729 12.0
58.070761 10.0
59.04681 71.0
60.994237 28.0
61.006478 27.0
62.012957 135.0
63.022236 909.0
64.028685 283.0
65.037575 2308.0
66.044004 467.0
67.053343 374.0
68.023472 13.0
68.054982 6.0
68.995671 415.0
71.011959 14.0
71.04664 12.0
72.934247 21.0
73.032168 5.0
74.012437 93.0
75.021296 225.0
76.029296 426.0
77.038015 2585.0
78.046444 1452.0
79.030953 391.0
79.037053 440.0
80.024262 83.0
80.059323 10.0
81.032591 461.0
82.067641 6.0
83.01105 9.0
83.08515 18.0
85.059448 23.0
86.013487 11.0
87.021276 19.0
88.028506 76.0
89.037835 1244.0
90.045474 463.0
90.760821 15.0
91.055043 3355.0
92.024192 194.0
92.059903 7.0
93.032482 76.0
93.066492 13.0
94.042461 385.0
95.0493 1442.0
95.951108 12.0
96.07878 9.0
97.062649 20.0
97.069409 14.0
97.947767 6.0
100.028646 11.0
101.037405 47.0
102.045294 391.0
103.054204 918.0
104.059083 130.0
105.035692 1019.0
106.043101 239.0
107.04923 1545.0
108.019389 121.0
109.027668 106.0
109.048129 116.0
109.058359 44.0
110.036528 28.0
110.998417 12.0
111.041767 7.0
113.000345 16.0
113.964624 12.0
114.044115 7.0
115.053794 333.0
116.024663 34.0
116.052103 17.0
116.062653 54.0
117.033512 162.0
117.041992 76.0
117.048352 75.0
118.040351 549.0
119.01302 20.0
119.04936 1081.0
120.020809 8.0
120.030469 21.0
120.05515 612.0
121.043619 285.0
121.052239 180.0
121.064099 79.0
122.033968 221.0
123.045737 1772.0
124.045326 5.0
125.058806 35.0
126.044525 10.0
127.050664 18.0
128.057483 35.0
128.061923 107.0
129.034892 35.0
129.046022 12.0
129.068282 24.0
130.041691 197.0
131.050191 1073.0
132.02542 45.0
132.05694 80.0
133.029129 1759.0
134.035508 885.0
135.042247 350.0
136.013906 15.0
136.034466 62.0
136.049337 103.0
137.061286 1206.0
138.063205 25.0
139.056054 16.0
139.073374 12.0
140.048983 7.0
141.058263 6.0
141.071043 23.0
142.052452 7.0
142.065292 14.0
143.073581 14.0
144.05603 15.0
144.08307 15.0
145.028859 299.0
146.035748 635.0
147.044927 4712.0
147.582362 6.0
148.052827 5137.0
149.034266 245.0
149.051006 284.0
150.032145 2447.0
151.039364 1977.0
152.059624 55.0
153.056663 30.0
153.067553 41.0
153.083313 31.0
153.089373 35.0
154.064242 25.0
154.073962 11.0
154.90925 6.0
155.059261 12.0
155.066581 13.0
155.075111 13.0
155.082431 10.0
156.07707 14.0
157.030699 15.0
157.060149 5.0
157.08593 12.0
158.029068 22.0
158.036458 134.0
159.012097 10.0
159.044218 60.0
159.055338 16.0
159.114638 25.0
160.016757 27.0
160.031627 42.0
160.040287 15.0
160.052677 69.0
160.298179 6.0
161.024586 1944.0
162.031805 830.0
163.039704 2044.0
164.048204 431.0
165.054773 1848.0
166.064422 2691.0
167.070831 34.0
168.06376 7.0
168.084071 13.0
169.08128 6.0
169.10548 9.0
171.001257 6.0
171.039688 5.0
172.050747 8.0
172.077737 5.0
173.023546 165.0
173.134387 9.0
174.032695 871.0
175.042185 3750.0
175.459778 13.0
175.480539 11.0
176.053304 8680.0
177.016473 7.0
177.033423 8.0
177.051673 938.0
177.454677 10.0
177.493837 14.0
178.063332 6019.0
179.034601 1907.0
180.076881 7.0
180.092641 6.0
181.08658 2100.0
182.092499 6.0
183.081318 7.0
184.078137 5.0
186.031775 27.0
187.001754 5.0
187.037915 32.0
188.044084 35.0
188.053484 9.0
189.019283 189.0
189.035443 52.0
190.026712 752.0
191.036801 1057.0
192.045511 1513.0
193.0528 7486.0
194.055889 1405.0
195.060218 6.0
195.909406 6.0
199.108965 7.0
200.058354 6.0
201.018343 62.0
201.158644 14.0
202.029372 10.0
202.076723 6.0
203.037332 1807.0
204.043621 5725.0
205.02574 163.0
205.03134 249.0
205.04678 175.0
205.630755 5.0
206.022859 168.0
206.039739 111.0
206.346392 6.0
206.360462 9.0
207.033688 7230.0
208.032857 6.0
208.048388 11.0
208.073828 105.0
209.085417 1232.0
210.068226 6.0
210.986435 5.0
214.062603 7.0
218.09605 7.0
219.030178 45.0
219.063539 15.0
219.17374 19.0
220.038968 22.0
221.035507 28.0
221.047157 2891.0
222.054726 6734.0
223.055825 9.0
223.165546 6.0
233.106728 5.0
235.056666 21.0
236.068545 211.0
236.273287 9.0
236.286837 23.0
236.300387 8.0
237.079584 9773.0

