>compound 
>formula C25H28O11
>parentmass 527.15238271771
>ionization [M + Na]+
>instrumentation Unknown (LCMS)
>source file:/Users/fanzhoukong/Documents/GitHub/Libgen/data/EAD_PFP/0_unknown_/spectrum.ms
>quality UNKNOWN

>ms2peaks
50.013584 247.0
51.021785 802.0
52.031555 178.0
53.037676 144.0
55.054097 232.0
56.052937 45.0
57.065948 20.0
58.989689 10.0
60.98126 45.0
62.01221 55.0
63.018351 32.0
63.023011 143.0
65.039122 1487.0
66.043942 80.0
67.047653 94.0
68.046003 23.0
68.994754 168.0
71.072915 16.0
74.014766 49.0
75.022777 72.0
76.029917 145.0
77.039478 878.0
78.043578 229.0
79.053309 374.0
80.051129 200.0
81.06755 193.0
82.06198 18.0
83.077651 29.0
86.000372 12.0
87.021773 32.0
88.028073 11.0
89.040154 157.0
90.040354 89.0
91.055495 1285.0
92.056585 188.0
92.994176 22.0
94.060926 72.0
95.079317 45.0
96.086857 17.0
97.022508 46.0
98.031538 50.0
102.04365 151.0
103.053531 265.0
104.054391 54.0
105.069132 205.0
106.062562 44.0
106.075672 25.0
108.078723 15.0
109.099544 28.0
110.999685 31.0
113.018276 71.0
114.033866 26.0
115.053997 368.0
116.057567 78.0
117.059128 130.0
118.059678 59.0
119.080519 28.0
121.06423 26.0
121.09334 69.0
123.00457 17.0
123.089331 7.0
126.044612 38.0
127.048532 67.0
128.061983 363.0
129.067223 90.0
130.057404 81.0
130.066324 106.0
131.044634 156.0
131.052474 298.0
132.074985 19.0
133.041575 57.0
133.077745 38.0
134.072936 15.0
134.101306 20.0
135.087766 44.0
136.071027 29.0
137.057827 20.0
138.037858 18.0
139.053708 92.0
140.052419 37.0
141.066329 130.0
142.06406 92.0
143.07233 36.0
144.080631 55.0
145.075961 31.0
145.969362 26.0
147.004442 26.0
147.036502 65.0
148.049143 41.0
149.098713 37.0
151.057274 42.0
152.061865 205.0
153.073445 63.0
154.067696 110.0
155.063946 53.0
156.073197 30.0
157.088177 35.0
158.096598 74.0
159.108238 8.0
161.051679 20.0
161.097689 19.0
163.00316 85.0
163.05569 30.0
164.060471 26.0
165.069591 128.0
166.075482 93.0
167.061642 38.0
167.069242 92.0
167.085712 143.0
168.082493 96.0
168.101553 31.0
169.027463 31.0
169.065673 25.0
170.036394 70.0
170.061934 18.0
170.096434 19.0
171.041914 409.0
172.045265 28.0
172.054245 41.0
173.058005 48.0
174.997746 25.0
175.039216 15.0
177.055177 97.0
177.063007 99.0
178.058998 32.0
178.074688 53.0
179.059108 13.0
179.081378 93.0
180.084339 51.0
181.067699 45.0
181.082189 33.0
182.18858 41.0
183.03846 40.0
183.10076 27.0
184.035151 56.0
185.042541 778.0
186.051342 37.0
187.028052 23.0
187.070932 31.0
188.043593 16.0
188.061063 20.0
189.049753 61.0
189.068613 73.0
190.066704 32.0
190.997034 85.0
191.082334 44.0
192.081645 30.0
192.973325 26.0
192.981485 36.0
194.053986 21.0
194.097656 17.0
195.091136 18.0
196.095387 17.0
197.019687 39.0
199.035108 534.0
200.048049 35.0
201.039969 598.0
202.05382 23.0
202.07331 57.0
203.05346 663.0
204.083581 24.0
204.998451 27.0
205.064371 23.0
205.109261 23.0
206.089712 18.0
207.028802 67.0
208.037853 15.0
208.105673 27.0
209.026683 27.0
209.108813 40.0
210.115804 25.0
211.038394 15.0
212.041465 15.0
213.066915 16.0
214.040386 24.0
214.133556 23.0
215.033316 82.0
215.070676 39.0
217.046257 910.0
218.098198 39.0
219.062768 14.0
219.097578 20.0
219.135278 24.0
220.086159 18.0
221.076959 13.0
222.12111 39.0
223.09015 26.0
223.10916 27.0
225.043351 17.0
226.068822 10.0
226.076192 41.0
228.083813 25.0
229.050933 24.0
230.094394 20.0
231.049384 681.0
232.106325 29.0
233.038545 84.0
233.052005 44.0
234.115005 11.0
235.049766 22.0
235.063286 38.0
239.079948 13.0
241.086589 28.0
242.109829 16.0
242.98251 47.0
244.10616 13.0
245.062161 38.0
245.095891 26.0
247.069052 22.0
247.127572 14.0
248.178962 22.0
249.085693 49.0
250.122643 22.0
252.176554 20.0
257.165057 8.0
259.052078 35.0
259.112018 20.0
260.120618 17.0
261.086869 17.0
261.097949 22.0
263.07399 9.0
265.025591 20.0
267.013232 26.0
268.980983 17.0
269.154503 15.0
271.054314 8.0
273.083795 28.0
274.096515 38.0
275.085106 32.0
275.112726 30.0
276.073846 31.0
276.155236 20.0
277.061117 33.0
277.083947 28.0
281.052399 74.0
282.048519 32.0
283.0563 38.0
284.0675 8.0
286.257751 19.0
288.078862 8.0
289.077333 35.0
290.092563 18.0
291.084474 51.0
293.118715 25.0
293.132145 16.0
301.073189 15.0
302.087099 16.0
303.10273 295.0
304.1081 26.0
305.080911 46.0
311.147414 16.0
311.157784 22.0
312.152174 22.0
313.066695 19.0
318.085527 29.0
319.094438 678.0
320.101428 24.0
321.106519 383.0
323.10729 12.0
325.107231 23.0
329.075853 292.0
330.178553 27.0
331.085224 78.0
333.089985 84.0
333.102505 86.0
335.099026 110.0
335.109766 531.0
339.221798 8.0
345.07641 13.0
345.0946 19.0
345.961391 22.0
347.092011 3976.0
348.100192 60.0
349.093352 83.0
349.115292 52.0
351.105923 50.0
353.162964 8.0
355.144775 24.0
357.126586 8.0
359.043367 8.0
360.085458 21.0
361.091868 331.0
362.097759 15.0
363.077089 124.0
363.086429 437.0
364.09138 111.0
364.10072 73.0
365.09772 1583.0
367.099561 192.0
368.205912 12.0
375.224225 10.0
377.088086 47.0
378.089367 39.0
379.099597 1639.0
380.111188 67.0
381.129838 17.0
383.201949 12.0
387.112381 13.0
389.104052 20.0
391.114373 11.0
393.098804 694.0
395.099935 1601.0
397.063196 56.0
397.102256 75.0
403.121849 8.0
405.13647 25.0
407.106691 185.0
408.129212 8.0
409.131252 30.0
411.142943 18.0
419.128697 11.0
421.124578 18.0
423.139319 29.0
435.067055 17.0
435.107925 28.0
437.112776 96.0
439.157117 20.0
439.200237 51.0
441.545848 42.0
446.158531 26.0
449.122392 33.0
451.125933 23.0
452.125233 22.0
456.208735 13.0
465.16369 22.0
465.26513 34.0
466.13186 22.0
467.126461 90.0
479.116277 58.0
479.133427 324.0
481.136148 28.0
481.153358 56.0
482.159518 110.0
483.162449 692.0
491.247173 16.0
493.155374 35.0
495.130475 54.0
495.230755 26.0
496.142435 37.0
497.157606 35.0
498.924057 44.0
499.158217 26.0
507.130231 13.0
509.148582 575.0
511.159843 16.0
524.757229 17.0
525.13205 212.0
525.40145 96.0
526.12252 44.0
526.15622 179.0
526.43264 44.0
526.57199 41.0
526.69119 26.0
527.140901 8254.0
527.156641 17161.0

