>compound 
>formula C20H24O10
>parentmass 447.12616796922
>ionization [M + Na]+
>instrumentation Unknown (LCMS)
>source file:/Users/fanzhoukong/Documents/GitHub/Libgen/data/EAD_PFP/0_unknown_/spectrum.ms
>quality UNKNOWN

>ms2peaks
111.0057 11.0
114.03681 11.0
115.0538 100.0
116.0658 11.0
117.06952 32.0
118.05946 27.0
119.0803 41.0
121.07047 47.0
125.02908 11.0
127.05821 46.0
128.06393 174.0
129.07028 45.0
130.99275 42.0
131.04883 26.0
146.09685 32.0
147.03851 36.0
148.078549 18.0
149.027769 47.0
150.040009 27.0
151.044839 89.0
152.059069 111.0
152.063889 120.0
153.059709 145.0
153.070619 110.0
154.064849 49.0
155.034259 828.0
156.070329 92.0
157.043549 42.0
158.097399 38.0
159.091729 33.0
160.085479 28.0
161.061189 14.0
162.047319 23.0
163.052729 22.0
163.070249 73.0
164.062509 37.0
165.070369 168.0
166.073759 61.0
167.033319 105.0
168.041369 75.0
169.081739 49.0
170.074219 57.0
171.040139 441.0
172.114169 45.0
174.058959 39.0
174.999819 47.0
176.984279 18.0
178.076769 87.0
179.028429 52.0
179.046769 41.0
179.067729 49.0
180.068019 127.0
181.085619 130.0
182.100749 46.0
185.040629 245.0
187.074369 40.0
188.106149 18.0
189.054559 91.0
190.070169 37.0
190.083679 44.0
191.072259 27.0
192.078319 70.0
193.016259 142.0
194.086129 20.0
195.102829 41.0
197.041079 142.0
198.098559 112.0
199.037249 76.0
200.082059 22.0
200.971269 41.0
202.076839 47.0
203.082139 44.0
204.075909 48.0
205.000589 41.0
206.084819 49.0
207.037989 113.0
209.033059 75.0
211.056209 179.0
213.084809 11.0
215.072829 38.0
216.079669 31.0
217.020999 70.0
217.065729 27.0
219.033048 51.0
220.108688 69.0
221.079148 37.0
223.058668 32.0
225.027908 54.0
227.067788 41.0
228.179228 24.0
230.099558 25.0
231.094758 47.0
232.084638 37.0
234.103728 46.0
237.043178 37.0
239.045808 31.0
239.057938 36.0
241.069028 58.0
242.972498 26.0
243.064128 24.0
244.111428 24.0
246.083708 47.0
248.107118 37.0
249.075548 78.0
251.052208 61.0
253.058518 75.0
253.072518 56.0
255.044618 45.0
256.155038 42.0
257.123308 24.0
257.156288 37.0
259.142648 25.0
265.016708 21.0
265.069318 82.0
266.073468 83.0
267.055498 752.0
269.061958 68.0
270.125168 56.0
271.080758 53.0
281.053048 107.0
281.062908 359.0
283.043748 33.0
283.075058 38.0
285.066268 31.0
285.099348 46.0
297.053727 159.0
298.079447 113.0
299.083237 10638.0
300.516517 20.0
301.189377 25.0
315.067277 142.0
315.079447 407.0
317.084057 138.0
331.076887 113.0
333.095927 269.0
337.096657 64.0
339.011277 12.0
340.153977 35.0
341.179177 92.0
343.016427 55.0
349.079237 28.0
349.090247 63.0
352.718147 12.0
355.069657 31.0
355.594067 12.0
360.444867 11.0
367.094436 25.0
369.160076 18.0
374.316356 12.0
375.547406 12.0
385.122506 71.0
386.078566 28.0
387.103256 84.0
387.130226 53.0
397.085156 65.0
399.114026 94.0
399.601486 12.0
401.112716 28.0
401.134316 12.0
403.151836 129.0
413.118206 65.0
415.093756 380.0
415.099716 1051.0
416.108256 32.0
417.118026 67.0
428.099286 26.0
429.121466 105.0
430.122476 21.0
431.138926 24.0
437.148015 20.0
445.114605 205.0
445.635595 44.0
445.650065 78.0
447.138225 14037.0

