>compound 
>formula C55H89NO22
>parentmass 1116.59490450344
>ionization [M + H]+
>instrumentation Unknown (LCMS)
>source file:/Users/fanzhoukong/Documents/GitHub/Libgen/data/EAD_PFP/0_unknown_/spectrum.ms
>quality UNKNOWN

>ms2peaks
126.053822 384.0
127.050052 58.0
128.057963 253.0
128.063523 601.0
129.070964 195.0
130.062274 55.0
131.067455 89.0
131.084285 118.0
132.081026 24.0
133.073626 19.0
133.101866 61.0
135.042648 34.0
138.05784 1989.0
139.05527 141.0
141.069072 236.0
142.069132 88.0
143.076243 108.0
144.066924 584.0
145.101144 150.0
146.094065 35.0
147.115326 39.0
162.075616 35.0
163.054826 60.0
164.062107 56.0
165.069988 390.0
166.068308 59.0
167.075979 169.0
168.06764 1266.0
169.10173 104.0
170.095551 97.0
171.110212 72.0
172.059782 30.0
172.079072 122.0
172.120172 32.0
173.135713 134.0
175.057734 73.0
175.147204 187.0
176.062395 139.0
177.073826 62.0
178.076366 275.0
179.085697 135.0
180.076828 79.0
181.075988 44.0
181.094458 48.0
182.186309 89.0
183.06402 39.0
183.10909 46.0
184.03553 42.0
184.10598 30.0
185.113551 102.0
186.075762 1248.0
187.149022 180.0
188.086963 34.0
188.156833 48.0
189.071684 89.0
189.118824 83.0
189.161954 85.0
190.072484 97.0
190.172445 49.0
191.079995 62.0
191.180215 359.0
192.088816 98.0
192.983226 187.0
193.094826 57.0
194.971108 73.0
195.116128 59.0
196.125929 28.0
197.128709 45.0
198.11473 26.0
199.150211 118.0
200.059511 32.0
201.168142 187.0
202.077853 227.0
203.155753 259.0
204.096534 2961.0
205.106835 68.0
206.101325 60.0
207.036216 201.0
208.110267 18.0
209.011447 22.0
209.103527 22.0
210.035258 23.0
210.133218 20.0
211.145519 41.0
213.15881 83.0
215.085381 44.0
215.170161 22.0
216.089362 46.0
217.085583 67.0
218.098553 31.0
219.115344 23.0
219.177684 56.0
220.086515 22.0
221.128315 27.0
222.095166 1178.0
223.146107 30.0
225.074568 205.0
226.078009 30.0
227.181109 51.0
228.08565 92.0
231.133122 33.0
232.085773 106.0
233.131633 44.0
233.188473 27.0
235.147745 33.0
237.157466 48.0
238.184427 55.0
239.177247 114.0
240.091668 42.0
241.193419 69.0
243.08823 74.0
243.21042 51.0
245.151441 41.0
246.094122 28.0
246.161742 48.0
247.166413 90.0
248.988634 35.0
250.090445 59.0
251.954506 40.0
252.183126 40.0
253.193767 93.0
254.203297 20.0
255.210138 89.0
257.152839 22.0
258.09309 56.0
259.172251 63.0
260.143081 35.0
261.096692 220.0
262.156753 26.0
265.019545 33.0
265.187025 35.0
266.995956 31.0
267.212086 54.0
269.003797 35.0
272.112049 51.0
274.101701 12.0
276.101862 29.0
276.111622 103.0
277.195153 53.0
279.106714 52.0
281.052725 94.0
282.048856 61.0
284.046347 14.0
285.185058 36.0
287.18863 40.0
294.117804 30.0
295.241155 35.0
299.199838 30.0
300.113868 24.0
303.10133 24.0
305.214702 22.0
307.242683 24.0
311.204756 34.0
314.125228 59.0
317.21984 37.0
320.241962 12.0
327.235896 20.0
331.122949 7.0
332.13446 126.0
336.133022 320.0
337.288853 21.0
342.006326 12.0
347.26933 76.0
348.11875 25.0
348.13337 67.0
349.285841 50.0
350.152352 3833.0
354.141495 59.0
366.145073 37.0
368.159174 1859.0
375.309899 56.0
378.141051 158.0
381.279293 28.0
389.318818 94.0
390.326509 88.0
391.337469 296.0
392.34388 63.0
393.322461 52.0
393.351601 71.0
395.298842 36.0
396.148483 50.0
404.147478 38.0
404.159288 13.0
407.33031 95.0
408.339281 176.0
409.345512 159.0
411.286213 37.0
411.373613 50.0
419.331508 59.0
422.16076 85.0
424.294982 12.0
426.347623 43.0
427.355534 26.0
435.312509 71.0
435.330909 96.0
436.32893 26.0
437.34241 824.0
440.176182 28.0
446.162886 52.0
453.340651 153.0
454.336112 130.0
455.357742 342.0
459.968286 12.0
464.181968 39.0
464.194638 12.0
473.344454 45.0
480.174169 47.0
481.17933 47.0
482.18552 6498.0
491.332047 12.0
492.364027 27.0
498.182731 28.0
500.191972 721.0
512.221491 12.0
521.374327 43.0
533.385145 16.0
570.38798 28.0
573.379552 34.0
581.401717 37.0
596.366077 12.0
599.400999 159.0
611.428587 38.0
612.441528 12.0
614.440799 218.0
616.39472 95.0
617.402041 114.0
635.187823 12.0
644.246299 264.0
657.429228 36.0
658.436859 61.0
672.405928 12.0
674.426919 82.0
675.43223 22.0
676.448411 158.0
703.429079 33.0
704.43494 54.0
744.416106 12.0
746.446138 38.0
760.498757 92.0
775.454217 22.0
776.455678 64.0
801.417065 13.0
803.487196 21.0
804.487197 41.0
806.458388 33.0
819.485557 46.0
820.489827 161.0
822.480489 23.0
822.503009 194.0
834.783787 13.0
837.483369 118.0
837.494659 206.0
838.498569 4701.0
848.476296 21.0
850.503457 45.0
866.479298 35.0
890.490914 28.0
891.520205 66.0
892.541326 180.0
892.567636 78.0
910.512778 26.0
925.537388 15.0
936.540255 37.0
952.520856 134.0
954.529407 106.0
966.546265 53.0
970.515628 71.0
970.543088 167.0
982.534066 75.0
983.556897 138.0
984.558667 3420.0
1011.535486 13.0
1012.548306 81.0
1042.552356 41.0
1056.583006 28.0
1071.627816 13.0
1079.582651 35.0
1098.594994 57.0
1114.585605 57.0
1115.576815 86.0
1116.597936 5142.0

