>compound 
>formula C23H28O11
>parentmass 481.1704427177101
>ionization [M + H]+
>instrumentation Unknown (LCMS)
>source file:/Users/fanzhoukong/Documents/GitHub/Libgen/data/EAD_PFP/0_unknown_/spectrum.ms
>quality UNKNOWN

>ms2peaks
103.050402 70.0
113.940621 11.0
121.01664 45.0
126.045529 64.0
127.040629 193.0
127.049459 171.0
128.058479 275.0
129.067039 98.0
130.041578 33.0
130.063918 52.0
130.616408 311.0
131.056768 13550.0
131.731638 69.0
131.977988 553.0
132.359778 19.0
139.039647 504.0
141.067297 97.0
142.069677 21.0
143.225656 11.0
145.050976 113.0
147.041056 38.0
149.057836 65.0
163.051704 32.0
164.062733 50.0
165.069343 163.0
166.072723 36.0
167.082933 92.0
167.087983 121.0
168.060663 55.0
169.067963 51.0
171.064712 508.0
173.061592 48.0
173.131202 37.0
174.065682 26.0
175.073952 19.0
176.061742 39.0
177.071862 19.0
177.100542 72.0
177.109672 56.0
178.077031 132.0
179.083731 43.0
180.080131 33.0
181.064791 48.0
182.070631 38.0
182.190931 43.0
183.039511 52.0
183.088551 37.0
185.09689 51.0
185.11289 53.0
187.05591 41.0
187.11485 46.0
188.87711 28.0
189.07506 69.0
189.1276 21.0
190.07047 28.0
191.00351 19.0
191.06986 116.0
192.082699 33.0
192.983919 45.0
193.094159 30.0
194.022289 41.0
195.085359 39.0
195.116819 57.0
197.085389 19.0
199.150928 48.0
200.006198 11.0
202.077178 38.0
203.072688 39.0
203.120158 60.0
205.058437 18.0
207.032717 35.0
208.030437 28.0
209.135417 30.0
210.008997 26.0
211.053727 46.0
213.170986 11.0
215.070326 98.0
215.143616 27.0
217.090646 19.0
217.157056 39.0
219.137825 61.0
222.062355 11.0
223.146865 31.0
225.044465 27.0
225.164985 50.0
227.069664 26.0
229.120264 11.0
232.128334 37.0
233.081553 280.0
237.158263 33.0
239.179563 29.0
241.078602 26.0
241.195732 35.0
243.179132 35.0
245.155332 32.0
247.248851 12.0
248.987911 14.0
251.082181 13.0
252.090611 23.0
254.09635 19.0
255.21253 87.0
257.0751 116.0
257.08297 375.0
265.021989 34.0
265.197439 58.0
267.206528 38.0
271.084528 40.0
271.213548 38.0
273.224198 74.0
274.156087 29.0
275.094407 7759.0
277.489677 35.0
279.110827 37.0
281.045396 44.0
282.056296 29.0
283.209126 388.0
287.091566 57.0
289.216785 12.0
291.995595 44.0
292.132895 32.0
293.111525 7261.0
301.104964 147.0
301.188274 324.0
301.215474 353.0
311.152082 14.0
319.228681 87.0
346.731977 11.0
349.876566 12.0
389.894141 11.0
481.249197 121.0
481.274987 216.0

