>compound 
>formula C15H14O7
>parentmass 307.08123378821006
>ionization [M + H]+
>instrumentation Unknown (LCMS)
>source file:/Users/fanzhoukong/Documents/GitHub/Libgen/data/EAD_PFP/0_unknown_/spectrum.ms
>quality UNKNOWN

>ms2peaks
50.015005 385.0
51.023905 1094.0
52.024515 38.0
52.030875 188.0
53.007015 2519.0
53.586295 25.0
55.016295 351.0
55.020655 1423.0
55.934895 19.0
56.047785 26.0
56.059515 21.0
57.031134 34.0
57.934274 23.0
58.993394 24.0
60.985024 43.0
61.007974 26.0
62.015984 111.0
63.025264 694.0
64.032494 188.0
65.042963 2589.0
65.046123 2244.0
66.047813 1947.0
67.037903 558.0
67.044323 668.0
67.483793 17.0
68.026473 47.0
68.999493 2116.0
71.012483 562.0
73.046882 15.0
74.015422 38.0
75.022582 61.0
76.024602 58.0
76.032282 100.0
77.041852 2157.0
78.048562 214.0
79.055702 463.0
80.028992 25.0
80.049142 61.0
81.033791 549.0
82.043991 172.0
83.051511 844.0
85.029881 549.0
87.025151 34.0
88.031461 59.0
89.040781 594.0
90.0447 69.0
91.05612 1433.0
92.02619 31.0
92.05814 139.0
93.03731 1651.0
94.0416 1581.0
95.04937 1666.0
96.02219 31.0
97.03084 420.0
99.012279 54.0
99.044449 33.0
101.038359 51.0
102.047219 144.0
103.055129 388.0
104.052989 32.0
105.039609 492.0
106.054078 50.0
106.066178 29.0
107.054158 587.0
109.031588 148.0
110.038388 146.0
111.045688 2060.0
112.053428 61.0
112.996988 25.0
113.039688 23.0
115.055627 404.0
116.054977 33.0
116.064477 65.0
117.038507 244.0
117.051227 150.0
118.046417 118.0
118.054927 59.0
119.040477 51.0
119.053297 52.0
119.082157 33.0
120.070897 14.0
121.031387 3218.0
122.033586 96.0
122.041156 599.0
123.047516 3547.0
123.941276 18.0
125.046326 59.0
125.058376 57.0
126.045176 72.0
127.042476 614.0
128.062546 272.0
129.066666 49.0
130.068005 45.0
131.053025 439.0
132.068785 21.0
133.031955 1166.0
134.043995 124.0
135.045055 840.0
138.042995 17.0
138.591414 90.0
138.860264 26.0
139.047314 10341.0
140.051804 431.0
141.070354 39.0
145.036374 111.0
145.642244 136.0
146.037364 37.0
147.046553 85.0
148.049663 24.0
149.058573 348.0
150.033733 262.0
151.043353 2542.0
152.050323 24.0
152.062403 86.0
153.054583 1775.0
154.047563 26.0
155.049832 71.0
156.089632 25.0
157.070282 27.0
158.079882 33.0
159.045742 1026.0
161.058412 34.0
162.032082 39.0
163.042451 4531.0
163.054961 3076.0
164.049691 24.0
165.055001 109.0
165.066331 137.0
166.074751 23.0
167.041911 123.0
167.067241 132.0
168.043641 1750.0
169.053451 3175.0
171.04882 40.0
171.66951 37.0
172.05477 49.0
173.06108 142.0
175.04232 92.0
176.05082 44.0
177.0583 1976.0
178.05819 25.0
178.0765 59.0
179.072699 376.0
180.045409 34.0
181.045789 692.0
181.053709 4857.0
182.097849 32.0
183.045589 57.0
185.059029 80.0
187.039268 246.0
189.067768 50.0
190.067208 19.0
190.998878 23.0
191.073338 46.0
191.088248 18.0
192.068568 22.0
193.005118 57.0
193.047308 96.0
193.058208 51.0
194.064038 23.0
195.066998 2902.0
196.056087 22.0
197.061427 84.0
198.069347 20.0
199.042517 28.0
200.047177 122.0
201.057117 332.0
202.030637 53.0
202.045947 59.0
202.072407 46.0
203.045567 61.0
203.076287 72.0
204.082666 20.0
205.049426 1039.0
207.032116 49.0
209.058306 18.0
211.031776 30.0
213.054545 64.0
214.060935 48.0
215.072575 80.0
215.147295 17.0
217.053945 22.0
218.056725 27.0
219.066155 331.0
221.080354 172.0
222.314334 18.0
223.064274 1556.0
224.047094 19.0
225.043824 25.0
225.055574 75.0
228.038423 52.0
229.048453 264.0
231.027513 19.0
241.055122 64.0
242.058462 82.0
243.066962 182.0
245.051881 22.0
247.054121 94.0
247.061811 610.0
248.988751 17.0
253.05051 84.0
259.06674 28.0
261.074679 45.0
265.069119 172.0
269.048918 56.0
270.058958 30.0
271.057978 216.0
281.052857 54.0
287.054316 57.0
289.066126 79.0
289.076106 504.0
307.064294 17.0
307.081444 132.0

