>compound 
>formula C19H28O2
>parentmass 289.21621114158006
>ionization [M + H]+
>instrumentation Unknown (LCMS)
>source file:/Users/fanzhoukong/Documents/GitHub/Libgen/data/EAD_PFP/0_unknown_/spectrum.ms
>quality UNKNOWN

>ms2peaks
50.014144 49.0
51.02512 204.0
53.041032 440.0
54.873005 7.0
55.056745 2508.0
56.058531 30.0
57.034567 155.0
57.048617 177.0
57.071557 131.0
58.075003 34.0
59.051049 113.0
60.047376 32.0
61.030602 48.0
62.063478 25.0
63.022574 12.0
65.040997 315.0
66.047413 78.0
67.056749 3639.0
68.051905 18.0
68.610653 15.0
69.071501 1917.0
70.064228 102.0
70.067508 141.0
71.051654 4931.0
72.09422 25.0
72.859807 12.0
75.093359 7.0
77.040451 1423.0
78.042807 28.0
78.051467 47.0
79.058623 4646.0
80.06171 46.0
80.806727 17.0
80.814657 39.0
81.074656 6039.0
81.718063 32.0
81.784493 65.0
82.045152 34.0
82.086862 24.0
82.56506 9.0
82.795759 25.0
83.074988 1393.0
83.089278 1401.0
84.057354 15.0
85.067181 1225.0
86.106667 15.0
87.440772 19.0
88.077659 1165.0
89.081685 411.0
91.058198 3282.0
92.063994 65.0
93.07341 5635.0
94.042737 24.0
94.089286 30.0
94.783274 15.0
95.089663 6144.0
96.749436 53.0
96.776426 19.0
97.067675 1156.0
97.072505 6427.0
97.635043 39.0
97.796752 19.0
97.915952 34.0
97.954732 79.0
98.069171 29.0
98.762069 20.0
99.083597 3534.0
99.605975 16.0
100.854441 17.0
101.06016 18.0
102.050316 15.0
103.056242 82.0
104.059108 37.0
105.064815 40.0
105.074855 5767.0
106.087471 1218.0
106.815188 39.0
107.087707 5175.0
108.044773 17.0
108.089583 41.0
108.101803 24.0
109.106349 3611.0
110.073406 83.0
110.091906 23.0
111.083952 788.0
113.092864 27.0
113.108484 39.0
114.0575 13.0
114.685038 17.0
115.057767 2509.0
116.065563 468.0
117.072449 2077.0
118.074105 52.0
118.081555 69.0
119.089651 8503.0
120.076268 26.0
120.096668 52.0
121.068034 64.0
121.104684 4367.0
122.11799 43.0
123.088786 3821.0
124.085252 19.0
124.095072 33.0
124.113622 17.0
125.101068 397.0
126.049535 103.0
127.055671 423.0
127.085491 65.0
127.472299 11.0
128.053627 99.0
128.062497 1792.0
129.065493 140.0
129.072183 2434.0
130.07129 42.0
130.08246 143.0
130.680887 32.0
131.074266 36.0
131.091096 4931.0
131.811013 18.0
132.085582 32.0
132.094602 52.0
132.68861 23.0
133.088368 103.0
133.108708 4279.0
134.098344 46.0
134.113084 71.0
135.1167 5217.0
136.089747 11.0
136.707554 20.0
137.100703 1392.0
137.423202 7.0
138.614347 23.0
139.094555 14.0
139.108415 60.0
139.117655 82.0
139.789793 25.0
140.094572 30.0
141.073708 3013.0
142.080794 1743.0
142.623112 30.0
143.08911 8254.0
143.707318 19.0
144.096296 911.0
144.610614 26.0
144.629474 48.0
144.644794 35.0
144.695454 32.0
145.105822 16640.0
145.902259 17.0
146.073889 23.0
146.088109 68.0
146.105849 168.0
146.111769 149.0
146.300108 14.0
146.347508 17.0
146.398488 24.0
146.614277 36.0
146.655797 29.0
146.788696 35.0
146.872966 14.0
147.121195 16752.0
147.796882 18.0
147.827842 14.0
147.970802 41.0
148.089991 31.0
148.101911 37.0
148.111441 59.0
148.134101 49.0
148.51112 26.0
148.623339 58.0
149.118187 11667.0
149.636595 36.0
149.736085 22.0
149.811615 20.0
150.047914 49.0
150.103123 19.0
150.321623 19.0
151.11658 2312.0
151.922087 28.0
152.065786 456.0
153.074952 2247.0
153.285911 23.0
154.057038 27.0
154.082568 922.0
154.581546 17.0
154.607116 26.0
155.088625 9915.0
156.089361 290.0
156.095481 2446.0
156.578089 19.0
156.595249 21.0
157.105627 14585.0
157.658645 39.0
157.753374 23.0
157.992164 20.0
158.105473 91.0
158.110403 661.0
158.295212 17.0
158.575121 20.0
158.586231 33.0
158.598561 23.0
158.619541 53.0
159.120829 16409.0
159.792537 33.0
159.877996 18.0
160.066326 47.0
160.112195 72.0
160.125815 143.0
160.134495 132.0
160.326695 17.0
160.377574 32.0
160.599704 43.0
160.629493 42.0
160.824483 21.0
161.121522 1423.0
161.128992 34391.0
161.718949 41.0
162.105368 63.0
162.135298 212.0
162.144028 232.0
162.155258 70.0
162.185198 32.0
162.352407 19.0
162.543446 16.0
162.578416 46.0
162.599636 29.0
162.745835 31.0
162.953355 20.0
163.115954 5024.0
163.644362 20.0
163.782242 14.0
163.920181 23.0
164.0707 20.0
164.11965 32.0
164.28662 29.0
164.503899 10.0
165.073567 326.0
165.096217 168.0
165.130206 113.0
165.135226 149.0
165.960813 19.0
166.069373 85.0
166.081983 163.0
166.86311 20.0
167.089709 1196.0
167.519237 37.0
168.096625 1203.0
168.537633 47.0
168.565623 42.0
169.105321 11109.0
169.856478 22.0
170.069748 27.0
170.114477 484.0
170.544056 24.0
170.553006 47.0
170.579876 44.0
171.124064 15956.0
172.12635 2775.0
172.464549 57.0
172.570048 49.0
172.684608 19.0
173.135456 14340.0
173.712114 47.0
173.889043 15.0
174.069952 58.0
174.102252 28.0
174.107422 69.0
174.124222 61.0
174.144912 94.0
174.520001 28.0
174.566601 26.0
174.59766 26.0
174.63908 46.0
175.143038 16507.0
175.956845 14.0
176.066015 14.0
176.124525 40.0
176.147915 60.0
176.154415 21.0
176.289664 31.0
176.388524 37.0
176.551183 27.0
176.921062 17.0
177.132211 2875.0
177.654099 39.0
178.086547 74.0
178.171527 20.0
179.090653 77.0
179.101133 62.0
179.111613 69.0
179.141763 225.0
179.440842 17.0
180.08049 92.0
180.09362 56.0
180.108089 48.0
181.098086 103.0
181.102046 722.0
182.111952 1001.0
182.53391 30.0
183.123338 11103.0
184.112284 118.0
184.130904 749.0
184.533883 36.0
185.13587 11190.0
185.778888 22.0
185.923117 33.0
186.108847 23.0
186.124867 51.0
186.142247 140.0
186.523365 17.0
186.591585 18.0
187.152693 7309.0
188.118849 22.0
188.126899 36.0
188.138999 41.0
188.156469 34.0
188.183349 23.0
188.491208 20.0
188.518108 72.0
189.140025 11957.0
189.806143 36.0
189.933032 13.0
190.130191 25.0
190.142351 35.0
190.165311 49.0
190.181521 27.0
190.243671 22.0
190.827839 32.0
191.143268 753.0
191.373577 20.0
191.864465 20.0
192.072124 27.0
192.209274 23.0
192.683552 31.0
193.10941 50.0
193.12302 55.0
194.111266 31.0
195.122552 427.0
195.64016 14.0
196.128249 562.0
196.437047 37.0
196.478247 54.0
196.762576 32.0
197.139275 14799.0
198.144621 1178.0
198.49365 30.0
199.153917 4061.0
200.113103 30.0
200.139433 64.0
200.157453 217.0
201.164909 11724.0
202.092716 36.0
202.135886 46.0
202.202746 28.0
202.683614 37.0
203.152482 3642.0
203.70858 15.0
204.091848 16.0
204.160438 30.0
204.785176 11.0
205.144214 50.0
205.165254 368.0
206.131781 15.0
206.880688 25.0
207.117477 51.0
207.130167 24.0
207.144267 73.0
207.159777 49.0
208.121073 26.0
208.133803 30.0
209.115759 61.0
209.138429 458.0
210.144065 141.0
210.182405 18.0
210.439544 15.0
210.486434 20.0
211.154952 13595.0
212.139738 53.0
212.158278 230.0
212.446607 36.0
212.466597 50.0
212.483746 74.0
212.679406 14.0
212.707986 17.0
213.171144 22456.0
214.001511 26.0
214.14054 33.0
214.17064 125.0
214.18498 44.0
214.19931 27.0
214.24806 23.0
214.339849 107.0
214.407259 18.0
214.443119 35.0
214.463199 37.0
214.760268 37.0
214.879437 25.0
215.148056 6660.0
216.136333 33.0
216.156493 45.0
216.183862 49.0
216.329352 15.0
216.503731 21.0
217.144199 46.0
217.160089 281.0
217.373788 18.0
217.599137 16.0
217.827536 24.0
218.189135 12.0
218.961072 19.0
219.180011 372.0
221.135004 17.0
221.145194 20.0
222.10187 17.0
222.13983 24.0
222.752017 35.0
223.148426 289.0
224.157812 298.0
225.170968 2315.0
226.164274 25.0
226.204054 29.0
227.183421 6102.0
228.191537 94.0
228.200417 128.0
229.169253 390.0
229.187053 4620.0
230.10448 46.0
230.168379 56.0
230.202559 29.0
230.435978 30.0
231.177135 5970.0
231.856823 25.0
232.425481 22.0
232.746699 14.0
233.130938 53.0
233.154888 18.0
233.162358 17.0
233.214718 24.0
233.726626 19.0
235.15156 10.0
235.17259 25.0
235.876168 26.0
236.156107 37.0
237.144673 53.0
237.162783 118.0
238.177679 907.0
238.226049 38.0
239.123505 8.0
239.185625 16.0
239.942212 10.0
240.827689 71.0
241.139438 62.0
241.171397 47.0
241.182047 47.0
241.194207 98.0
241.206377 113.0
242.168874 26.0
242.202414 36.0
242.243583 26.0
243.20967 2655.0
244.176156 18.0
244.185326 37.0
245.144552 28.0
245.181362 37.0
245.192102 34.0
245.202842 53.0
245.215112 35.0
245.81682 15.0
246.053389 8.0
247.210315 46.0
248.141491 15.0
248.36839 8.0
250.92381 19.0
251.16129 89.0
251.172149 83.0
251.181469 120.0
252.197876 24.0
252.345685 16.0
252.356575 36.0
252.404825 30.0
252.585394 8.0
252.870383 45.0
253.200732 23439.0
254.150938 13.0
254.202468 38.0
254.374297 22.0
254.458677 75.0
255.163944 50.0
255.182704 244.0
255.198364 66.0
255.503613 33.0
255.694682 15.0
255.981421 10.0
256.17424 24.0
256.18522 57.0
256.19618 47.0
256.454969 21.0
257.013767 23.0
257.150427 20.0
257.199107 8.0
258.367742 24.0
259.177729 36.0
259.202939 19.0
259.966856 36.0
260.219635 16.0
260.874263 21.0
261.220911 15.0
262.852645 19.0
263.806441 10.0
265.192516 18.0
266.267212 8.0
268.843832 20.0
269.192501 28.0
270.202807 47.0
270.241447 40.0
270.291367 30.0
270.821515 12.0
271.213393 17541.0
272.04164 32.0
272.2194 20.0
272.321239 23.0
272.555678 25.0
272.633308 20.0
272.903507 18.0
273.143076 29.0
273.185156 25.0
273.186776 69.0
273.761874 46.0
274.040743 29.0
274.159152 19.0
274.396001 29.0
274.433321 8.0
275.751036 29.0
276.078095 28.0
277.548209 21.0
278.103377 25.0
279.804971 13.0
280.749607 8.0
282.121862 26.0
285.018611 8.0
286.928664 11.0
287.744001 39.0
288.227759 32.0
288.290968 36.0
289.221505 6187.0

