>compound 
>formula C41H64O15
>parentmass 814.45834235627
>ionization [M + H3N + H]+
>instrumentation Unknown (LCMS)
>source file:/Users/fanzhoukong/Documents/GitHub/Libgen/data/EAD_PFP/0_unknown_/spectrum.ms
>quality UNKNOWN

>ms2peaks
115.049123 89.0
115.055433 568.0
116.062161 136.0
117.070099 166.0
118.067487 42.0
119.086215 477.0
121.077501 97.0
123.115727 33.0
126.051502 57.0
127.05434 214.0
128.062258 601.0
129.068606 283.0
130.064354 95.0
131.088602 235.0
133.099428 25.0
147.101951 150.0
147.965809 43.0
149.092827 62.0
149.098807 92.0
149.127527 58.0
150.074065 98.0
151.057343 121.0
152.063151 411.0
153.071069 317.0
154.073837 98.0
155.087165 214.0
156.092813 232.0
157.101701 335.0
158.100299 59.0
159.116898 619.0
160.094586 40.0
161.112594 84.0
161.137464 220.0
162.066462 133.0
163.07569 75.0
164.064198 54.0
165.069536 488.0
166.070394 102.0
167.073002 48.0
167.090712 71.0
168.07606 97.0
169.089798 88.0
169.101268 167.0
170.107846 39.0
171.114864 97.0
171.119984 158.0
172.097842 69.0
173.13393 736.0
174.111058 30.0
175.142796 234.0
175.149276 509.0
176.091785 67.0
177.139783 70.0
177.165863 173.0
178.078461 163.0
179.085149 96.0
180.088127 420.0
181.099175 60.0
182.107743 34.0
183.115141 129.0
184.125339 65.0
185.128967 240.0
186.140665 95.0
187.151113 1123.0
188.156221 73.0
189.143819 149.0
189.157289 152.0
190.071868 50.0
190.167777 42.0
191.145725 144.0
192.092254 30.0
192.988032 107.0
193.151382 36.0
194.11239 67.0
195.111378 53.0
195.116848 84.0
197.103274 39.0
197.132164 42.0
198.119552 26.0
199.14813 97.0
200.158598 57.0
201.161896 476.0
202.077144 74.0
203.142462 837.0
205.155198 250.0
207.032655 194.0
208.043103 33.0
209.125421 57.0
210.989617 31.0
211.140467 36.0
212.156605 41.0
213.163743 114.0
214.134551 52.0
215.143489 75.0
215.189479 81.0
217.159835 155.0
218.164283 37.0
219.130451 33.0
219.168161 100.0
221.153687 260.0
223.143763 51.0
225.1663 111.0
227.147746 38.0
227.175786 76.0
229.168992 86.0
229.192742 69.0
230.17854 29.0
231.138148 78.0
231.164958 86.0
232.141566 53.0
233.150144 129.0
234.162392 56.0
235.16933 59.0
237.153486 147.0
239.185362 111.0
241.072259 42.0
241.190908 95.0
246.159199 280.0
247.170017 172.0
249.185493 259.0
250.157551 48.0
251.173449 47.0
253.192695 82.0
255.177761 58.0
256.11911 32.0
257.227137 28.0
259.078114 43.0
259.167994 28.0
261.17314 40.0
262.158798 49.0
263.178056 50.0
264.172254 128.0
265.024792 50.0
265.198652 82.0
267.212528 64.0
269.225984 39.0
271.20666 78.0
273.184896 51.0
279.211835 81.0
281.053111 232.0
283.053687 20.0
283.187197 61.0
285.216833 32.0
291.210502 38.0
293.186448 12.0
295.101784 202.0
301.189392 57.0
305.225244 55.0
307.24813 25.0
309.246657 40.0
313.218089 36.0
319.247217 105.0
323.271569 41.0
329.220288 33.0
335.242946 28.0
337.249442 115.0
345.249697 48.0
349.201719 42.0
363.277162 31.0
375.304209 163.0
376.312597 27.0
377.324255 290.0
379.261991 25.0
379.300141 47.0
385.276049 40.0
387.303455 24.0
391.261818 62.0
392.304996 29.0
393.312684 600.0
395.30072 101.0
395.32797 100.0
403.297044 154.0
405.31605 302.0
407.294627 55.0
409.307713 27.0
411.325809 872.0
412.289947 449.0
413.287105 56.0
413.342865 41.0
419.293233 26.0
420.302841 59.0
421.313639 791.0
422.317607 123.0
423.326785 766.0
425.296242 36.0
430.296812 135.0
431.29513 61.0
437.307358 175.0
438.311716 118.0
439.319314 2503.0
440.328043 192.0
441.335881 187.0
448.306787 48.0
449.307115 151.0
450.316853 35.0
455.317723 177.0
456.319552 77.0
457.33713 4552.0
458.303408 62.0
465.302994 37.0
466.309402 176.0
467.31477 1355.0
468.321208 130.0
474.335637 119.0
483.310809 80.0
484.319227 202.0
485.335155 2225.0
488.30063 103.0
497.327682 12.0
500.314186 39.0
501.313854 72.0
502.332102 131.0
503.34037 2265.0
513.310141 33.0
520.365417 51.0
537.353425 59.0
544.342911 24.0
548.347663 12.0
553.357603 115.0
571.356169 309.0
572.375207 445.0
581.351269 70.0
583.374885 40.0
589.364554 190.0
598.347696 71.0
599.323334 63.0
599.356904 262.0
601.3732 100.0
611.364691 56.0
616.357241 172.0
617.349909 142.0
617.366999 1334.0
619.386466 1076.0
629.375956 114.0
633.316739 12.0
635.367025 75.0
635.394195 84.0
645.364625 12.0
647.374511 173.0
652.394162 365.0
652.409172 287.0
665.389246 53.0
680.394467 17.0
680.404727 87.0
680.430237 12.0
682.427423 198.0
710.410649 49.0
715.403859 28.0
743.412655 34.0
761.40786 117.0
779.415885 173.0
812.454451 44.0
813.451649 93.0
814.443768 2034.0
814.477337 3352.0

