>compound 
>formula C22H34O5
>parentmass 379.24790519367
>ionization [M + H]+
>instrumentation Unknown (LCMS)
>source file:/Users/fanzhoukong/Documents/GitHub/Libgen/data/EAD_PFP/0_unknown_/spectrum.ms
>quality UNKNOWN

>ms2peaks
108.058995 11.0
115.053559 1160.0
116.063446 206.0
117.070334 699.0
118.080501 65.0
119.086459 2435.0
121.065894 798.0
121.086374 825.0
123.046439 210.0
123.072519 191.0
123.085559 255.0
125.060574 362.0
126.047382 61.0
127.05793 389.0
128.062547 949.0
129.071125 518.0
130.081402 119.0
131.08442 149.0
133.102005 41.0
142.078584 47.0
143.082191 119.0
144.091709 119.0
145.103596 1198.0
146.077584 56.0
147.118972 2501.0
148.127109 61.0
149.114747 782.0
149.131497 809.0
150.046865 87.0
151.075802 1408.0
152.06234 1456.0
153.061787 2205.0
153.075117 177.0
154.080325 334.0
155.088802 1265.0
156.09445 674.0
157.104588 2183.0
158.097035 71.0
158.110585 549.0
159.091373 37.0
159.118563 2364.0
160.12602 136.0
161.131678 2089.0
162.141745 33.0
163.148703 2155.0
164.063411 94.0
165.072528 660.0
166.078436 268.0
167.074734 2219.0
168.075281 39.0
168.094331 188.0
169.103019 1466.0
170.104496 230.0
171.116624 2632.0
172.126621 162.0
173.134429 4127.0
174.067607 30.0
174.138697 102.0
175.145904 1642.0
176.139092 68.0
177.155949 300.0
177.162469 1441.0
179.089635 448.0
179.107975 439.0
180.089982 131.0
181.09838 896.0
182.100348 83.0
182.110928 173.0
183.105075 401.0
183.115695 835.0
185.11086 452.0
185.13352 1073.0
186.074398 51.0
186.117168 82.0
187.148995 2696.0
189.167301 3698.0
190.080558 46.0
191.138186 123.0
191.178816 735.0
192.095554 124.0
193.098871 405.0
193.109751 229.0
193.161501 130.0
194.108879 129.0
195.110606 1122.0
196.123124 114.0
197.131401 882.0
198.133969 43.0
199.152907 1479.0
201.159742 396.0
201.165292 3015.0
202.08335 152.0
203.141717 451.0
203.172427 740.0
204.096435 94.0
205.115162 134.0
205.162852 340.0
206.10827 124.0
207.178517 1901.0
209.133183 724.0
210.14163 68.0
211.136868 419.0
211.145418 1316.0
212.121605 50.0
212.154435 50.0
213.161573 1078.0
215.114018 90.0
215.159998 287.0
215.181558 418.0
216.095016 49.0
217.110003 105.0
217.138873 206.0
217.157643 339.0
218.091201 54.0
219.152919 561.0
219.177559 677.0
220.124186 88.0
221.134014 927.0
223.151809 1297.0
224.156827 67.0
225.128814 346.0
225.153804 767.0
226.173622 38.0
227.155879 256.0
227.179499 351.0
229.128235 389.0
231.12256 85.0
231.13595 148.0
231.17169 121.0
233.129965 369.0
235.14308 161.0
235.15209 613.0
236.153628 104.0
237.148235 304.0
237.163325 399.0
238.160073 51.0
238.175193 51.0
239.166471 352.0
241.158256 214.0
241.168906 168.0
243.146091 88.0
243.147611 215.0
243.164411 223.0
244.179789 45.0
245.185026 161.0
246.144664 62.0
247.140051 217.0
247.149301 227.0
248.160599 65.0
249.161587 277.0
250.147584 31.0
251.155682 388.0
251.172752 464.0
253.151477 32.0
253.162387 254.0
253.195117 78.0
255.139532 92.0
255.162992 175.0
255.184912 103.0
257.155747 130.0
257.184037 124.0
259.154703 96.0
260.15708 110.0
261.159788 253.0
262.173985 163.0
263.180573 196.0
264.150901 35.0
265.166068 346.0
265.191578 332.0
265.204338 276.0
266.202356 44.0
267.210253 1057.0
268.187971 38.0
269.151379 75.0
269.161029 163.0
269.215678 168.0
271.168924 140.0
273.150239 34.0
274.172826 70.0
275.184294 100.0
277.183499 125.0
277.196529 1922.0
279.204644 357.0
279.211204 871.0
280.184372 47.0
281.19536 65.0
283.166785 41.0
283.206335 138.0
285.19965 74.0
285.21787 327.0
287.160125 87.0
289.19397 471.0
291.166406 47.0
293.187521 115.0
295.210556 2950.0
297.225351 695.0
299.197846 34.0
301.181972 48.0
303.203357 34.0
305.169882 42.0
307.209757 2021.0
311.204408 83.0
312.210995 49.0
313.215763 3409.0
315.235318 321.0
320.125926 32.0
325.213164 1703.0
325.220214 2704.0
327.198299 33.0
329.212604 133.0
331.22597 3318.0
333.215065 54.0
342.217943 40.0
343.228081 3510.0
345.234636 34.0
347.225141 166.0
349.226846 141.0
349.235996 2014.0
360.23405 52.0
361.238777 2419.0
379.246274 935.0

