>compound 
>formula C30H44O7
>parentmass 517.31598475511
>ionization [M + H]+
>instrumentation Unknown (LCMS)
>source file:/Users/fanzhoukong/Documents/GitHub/Libgen/data/EAD_PFP/0_unknown_/spectrum.ms
>quality UNKNOWN

>ms2peaks
123.992764 11.0
126.047589 67.0
127.054826 175.0
128.060543 521.0
129.0691 177.0
130.067088 112.0
131.086875 218.0
132.022832 25.0
133.10107 109.0
135.081684 48.0
135.116984 48.0
137.060859 30.0
139.057894 49.0
141.071688 268.0
142.078765 103.0
143.085923 122.0
144.08485 42.0
145.102607 143.0
147.078772 38.0
147.96758 29.0
163.023799 93.0
163.048809 72.0
164.062356 41.0
165.070214 410.0
166.074841 128.0
167.087588 231.0
168.080566 102.0
169.094293 134.0
170.08936 60.0
170.1047 130.0
171.114257 156.0
172.110105 62.0
173.130752 334.0
174.102699 32.0
174.129849 38.0
175.143497 168.0
176.062584 96.0
177.084431 68.0
178.077869 184.0
179.070146 142.0
180.083583 59.0
181.082751 40.0
182.071458 69.0
182.111108 56.0
183.036345 46.0
183.117205 172.0
184.037013 48.0
184.111453 65.0
185.12703 86.0
185.13102 99.0
186.118687 42.0
187.143824 217.0
188.148912 56.0
189.061049 23.0
189.106839 184.0
189.139179 127.0
190.067227 43.0
190.998894 50.0
191.108564 101.0
191.146484 216.0
192.094371 36.0
192.980629 25.0
193.084068 76.0
194.087226 56.0
195.099833 62.0
195.117633 65.0
196.10547 72.0
197.083428 30.0
197.113668 142.0
197.134298 63.0
199.079812 54.0
199.147552 93.0
201.158507 197.0
203.084632 64.0
203.141871 64.0
204.092409 94.0
205.088676 59.0
205.160216 59.0
206.104213 35.0
207.032061 66.0
207.130731 48.0
208.029798 62.0
208.083488 30.0
209.133335 72.0
211.14559 102.0
213.163155 148.0
214.161202 38.0
215.098369 95.0
215.165899 102.0
215.181709 77.0
217.097174 43.0
217.157794 98.0
218.091371 32.0
219.134208 92.0
220.118506 64.0
221.119593 106.0
221.132693 47.0
223.134418 51.0
223.146118 106.0
225.139242 40.0
225.159832 157.0
226.07655 37.0
227.176687 81.0
229.161012 77.0
229.192151 97.0
230.111079 44.0
231.134596 48.0
231.176306 60.0
232.118594 25.0
233.151051 106.0
235.167245 70.0
237.15292 96.0
239.181755 119.0
240.094662 37.0
241.196419 81.0
243.117184 47.0
243.205784 27.0
245.155989 61.0
247.157113 33.0
249.152438 46.0
251.172872 26.0
253.196787 47.0
254.171964 51.0
255.066092 29.0
255.177172 42.0
255.213182 48.0
256.217339 32.0
257.149586 31.0
258.200024 34.0
259.140631 28.0
261.177316 126.0
263.16003 90.0
263.17432 43.0
265.172545 80.0
267.208759 144.0
269.218974 202.0
270.226151 372.0
271.170629 42.0
273.185973 83.0
275.192498 82.0
277.141163 30.0
277.191733 44.0
278.22182 30.0
279.193257 101.0
281.055832 97.0
282.048659 53.0
283.211376 35.0
285.191471 133.0
287.201716 38.0
287.234916 114.0
288.240263 296.0
289.18902 58.0
291.154775 22.0
291.196575 60.0
293.216079 93.0
295.219034 50.0
297.184879 26.0
299.165704 26.0
300.244311 45.0
302.259145 52.0
303.201703 35.0
305.245247 41.0
306.243874 40.0
307.204652 40.0
308.251189 31.0
311.164691 33.0
311.206171 49.0
313.214066 79.0
314.185683 36.0
315.22667 31.0
318.230562 29.0
321.181974 26.0
321.222344 24.0
325.216694 64.0
327.194778 23.0
327.205428 145.0
329.203743 35.0
331.231327 48.0
333.254422 41.0
337.212931 42.0
337.272291 30.0
339.209056 58.0
339.232496 57.0
341.24546 149.0
345.18185 25.0
347.279894 37.0
349.252459 42.0
351.228794 33.0
353.241978 25.0
355.259093 67.0
355.283113 39.0
357.206018 75.0
359.223252 20.0
361.287147 344.0
363.297181 55.0
365.245396 39.0
365.282836 61.0
367.225091 29.0
369.187555 37.0
369.285455 16.0
371.22508 84.0
371.26851 67.0
373.241735 34.0
373.287144 34.0
377.251434 54.0
379.301538 158.0
381.242423 38.0
381.280653 44.0
383.232348 71.0
384.237895 26.0
385.238992 145.0
386.2414 54.0
389.242882 27.0
389.277671 210.0
389.289271 335.0
391.298146 153.0
393.251941 54.0
395.265145 58.0
397.057011 42.0
399.259975 123.0
401.229609 31.0
405.076949 20.0
406.087046 44.0
406.284496 24.0
407.300063 1646.0
408.30698 44.0
409.309208 870.0
411.289522 71.0
414.272974 49.0
417.279216 178.0
419.282721 43.0
421.262886 34.0
423.26181 45.0
424.268087 41.0
425.305865 346.0
426.308492 80.0
427.283979 67.0
432.285986 34.0
435.283168 769.0
435.291348 1146.0
437.282273 66.0
437.300712 241.0
439.281847 73.0
441.298352 247.0
445.254211 27.0
445.268671 22.0
450.293508 28.0
451.273115 30.0
452.272562 53.0
452.291332 109.0
453.302319 4660.0
454.308167 98.0
455.283814 53.0
455.310974 41.0
457.223539 46.0
457.292659 44.0
463.276163 258.0
463.290903 958.0
470.304984 30.0
471.308281 674.0
472.316878 60.0
474.239183 40.0
480.291377 92.0
481.294484 1326.0
482.87325 37.0
498.291119 55.0
499.142126 33.0
499.277836 101.0
499.286596 283.0
501.234441 28.0
517.299088 1826.0
517.314718 979.0

