>compound 
>formula C35H50O16
>parentmass 744.34370652462
>ionization [M + H3N + H]+
>instrumentation Unknown (LCMS)
>source file:/Users/fanzhoukong/Documents/GitHub/Libgen/data/EAD_PFP/0_unknown_/spectrum.ms
>quality UNKNOWN

>ms2peaks
115.040674 75.0
117.072185 46.0
126.046032 54.0
127.051062 257.0
128.061183 690.0
129.069764 324.0
130.065524 68.0
130.077824 117.0
131.047185 1117.0
132.058416 216.0
133.065596 3831.0
134.065297 46.0
135.070998 72.0
135.085808 113.0
135.993638 31.0
137.022589 37.0
137.060449 60.0
139.04361 255.0
139.05863 291.0
141.070122 428.0
142.072522 48.0
143.072623 143.0
144.058584 142.0
145.046764 77.0
145.055014 300.0
146.072645 39.0
147.080756 135.0
157.060212 135.0
159.080094 248.0
160.089904 204.0
161.068105 267.0
161.096695 227.0
162.074226 99.0
162.104166 232.0
163.067216 617.0
164.063237 152.0
165.068598 736.0
166.077018 119.0
167.079649 110.0
167.088509 193.0
168.05609 72.0
168.06751 109.0
169.05957 260.0
170.074981 89.0
170.095411 74.0
171.076762 151.0
171.081892 574.0
172.093062 260.0
173.084023 1251.0
174.103664 3231.0
175.057614 64.0
175.084834 737.0
175.093904 787.0
175.109464 723.0
176.063555 143.0
177.077596 170.0
177.090636 216.0
178.080166 316.0
179.077697 186.0
180.072758 67.0
181.049488 199.0
181.061348 313.0
181.089018 153.0
182.072479 52.0
182.090979 33.0
182.186179 46.0
183.07052 132.0
183.07979 281.0
184.08988 120.0
185.093421 393.0
185.098741 415.0
186.093012 148.0
186.103692 155.0
187.112712 1842.0
188.123103 222.0
189.129484 1912.0
190.068294 44.0
190.998625 55.0
191.073085 157.0
191.082555 190.0
192.084586 54.0
192.094096 54.0
193.052486 198.0
194.073317 28.0
194.095147 68.0
195.080408 100.0
195.098208 91.0
197.057039 103.0
197.070789 201.0
197.094179 96.0
198.12424 139.0
199.0685 259.0
199.097531 389.0
201.072132 134.0
201.091572 126.0
201.101302 173.0
202.081883 174.0
203.099753 118.0
203.112303 164.0
205.070195 133.0
205.088425 93.0
206.067415 29.0
207.031816 53.0
207.067066 555.0
208.032397 29.0
208.111537 48.0
209.086367 60.0
209.103367 60.0
210.067738 37.0
211.065649 1017.0
212.084469 201.0
212.094449 108.0
213.12718 546.0
215.075171 102.0
215.085211 59.0
217.076753 467.0
218.109963 52.0
219.071664 53.0
219.102114 58.0
220.100895 48.0
221.081525 45.0
221.094635 86.0
223.061047 246.0
224.067327 28.0
224.101057 85.0
225.081748 95.0
225.100848 162.0
225.115538 75.0
226.080779 85.0
227.077599 55.0
227.102699 88.0
228.09731 27.0
229.074831 4464.0
230.093081 55.0
231.089762 53.0
233.086573 40.0
235.070965 28.0
235.096495 168.0
237.110516 49.0
239.095257 134.0
241.073059 708.0
242.097789 32.0
242.98265 28.0
243.10178 46.0
245.062321 37.0
245.108321 39.0
247.084593 4777.0
248.122013 66.0
249.090474 60.0
249.163154 30.0
252.097376 35.0
253.120307 56.0
255.133258 61.0
259.077461 1523.0
261.090162 35.0
263.064583 68.0
263.131333 36.0
265.094315 4743.0
265.107065 9170.0
266.172016 64.0
267.003736 84.0
267.138226 89.0
269.624128 32.0
271.115709 60.0
275.114462 38.0
276.091882 39.0
277.092213 610.0
278.128654 30.0
279.117944 32.0
279.140864 100.0
280.145045 118.0
281.055815 42.0
281.155996 292.0
282.165456 7055.0
283.178367 7671.0
284.181548 137.0
285.150078 65.0
287.07223 47.0
287.08716 62.0
289.139041 32.0
293.152344 163.0
294.105834 43.0
295.106265 6342.0
297.149416 107.0
297.162936 65.0
298.158427 40.0
299.167428 141.0
300.176428 3316.0
301.178659 2293.0
303.14033 45.0
304.149181 47.0
305.156292 207.0
306.161632 576.0
307.175483 7246.0
310.159865 166.0
311.164746 152.0
312.129746 40.0
317.15679 85.0
319.162741 126.0
322.158923 186.0
323.163684 674.0
324.171804 641.0
325.183225 1443.0
328.166647 48.0
329.155848 26.0
331.170799 464.0
333.18301 69.0
335.158232 46.0
337.114103 32.0
337.150083 33.0
340.164275 35.0
340.180545 78.0
341.171426 595.0
342.185456 46.0
343.191897 1806.0
345.191079 26.0
347.16685 110.0
348.01429 33.0
348.173321 79.0
349.181221 2659.0
353.172194 100.0
355.176165 103.0
359.169598 28.0
360.180289 69.0
361.184919 2163.0
362.18724 38.0
365.174462 145.0
366.174793 75.0
367.191523 271.0
369.116265 155.0
373.181387 716.0
377.16797 47.0
378.182681 148.0
379.193021 1987.0
383.188474 73.0
385.177735 102.0
387.131627 40.0
389.175508 38.0
390.188819 48.0
391.153079 64.0
391.191839 283.0
397.199813 273.0
403.190627 95.0
408.194481 79.0
409.202501 558.0
415.198995 433.0
415.214955 855.0
419.178768 33.0
421.21093 28.0
427.130463 55.0
427.144623 353.0
427.164884 432.0
432.213047 46.0
432.233407 69.0
433.227878 2375.0
437.2028 34.0
439.208352 43.0
444.167985 64.0
444.182445 101.0
444.213425 99.0
445.225686 286.0
455.206902 34.0
457.211414 32.0
462.210317 123.0
462.227167 922.0
463.238668 1906.0
473.220494 42.0
481.22193 29.0
483.689981 12.0
486.226943 59.0
487.231914 29.0
503.230615 33.0
504.233205 24.0
517.201664 63.0
546.244163 33.0
547.219934 184.0
565.265966 87.0
577.260844 28.0
594.257496 35.0
594.274226 125.0
595.282396 697.0
612.268988 12.0
612.310188 376.0
640.298426 65.0
644.308009 15.0
691.267571 37.0
709.278753 64.0
712.316175 38.0
738.989043 12.0
741.881255 38.0
744.316676 513.0
744.364776 3274.0

