>compound 
>formula C42H66O19
>parentmass 892.45365089901
>ionization [M + H3N + H]+
>instrumentation Unknown (LCMS)
>source file:/Users/fanzhoukong/Documents/GitHub/Libgen/data/EAD_PFP/0_unknown_/spectrum.ms
>quality UNKNOWN

>ms2peaks
50.017442 212.0
51.02355 688.0
52.030497 73.0
53.040155 588.0
54.044382 21.0
55.042039 375.0
55.056579 721.0
56.040757 43.0
57.035874 794.0
57.936062 19.0
58.005422 16.0
58.044232 19.0
59.049369 350.0
60.024436 39.0
61.028134 189.0
62.016251 49.0
63.024739 146.0
64.026466 16.0
65.040043 1315.0
66.032921 36.0
66.047251 92.0
67.053368 566.0
68.026696 157.0
69.035513 1216.0
70.04274 38.0
71.012678 229.0
71.022588 212.0
73.031152 478.0
74.01475 39.0
74.03583 18.0
75.008327 37.0
76.032445 74.0
77.044582 1422.0
78.045239 156.0
79.057587 544.0
80.050154 61.0
81.034802 629.0
81.067431 78.0
82.041439 89.0
83.050726 1817.0
84.017684 17.0
84.056294 17.0
85.025461 497.0
85.033591 1811.0
86.020169 29.0
87.045336 403.0
89.035301 84.0
89.039921 123.0
90.046618 80.0
91.058035 2117.0
92.057243 108.0
93.0638 137.0
93.07136 421.0
94.047318 25.0
95.049385 262.0
95.059895 119.0
95.084725 90.0
96.020282 19.0
96.080762 50.0
97.03084 1248.0
98.036027 219.0
99.046385 542.0
99.994322 26.0
100.041352 35.0
100.057032 33.0
101.024549 39.0
101.061969 99.0
102.033337 21.0
102.046197 82.0
103.047134 138.0
103.052104 243.0
104.052952 38.0
105.070679 876.0
106.073186 48.0
107.055114 21.0
107.084504 154.0
108.094511 48.0
109.029459 198.0
110.035216 36.0
111.046623 1686.0
112.054371 58.0
113.057278 121.0
115.057603 555.0
116.06012 52.0
117.059568 860.0
118.048405 50.0
118.072885 42.0
119.087352 374.0
120.08362 27.0
120.09436 27.0
121.064637 94.0
121.084037 68.0
121.089427 150.0
121.101287 183.0
122.043145 23.0
122.109174 26.0
123.045162 156.0
123.058202 75.0
123.079932 63.0
124.053449 46.0
124.081819 25.0
125.061467 548.0
126.057074 51.0
126.070264 419.0
127.041162 820.0
128.057899 110.0
128.064549 424.0
129.050856 29.0
129.058656 1688.0
130.066664 44.0
130.071124 84.0
131.060641 36.0
131.083071 399.0
132.079798 27.0
133.054296 206.0
133.071256 179.0
133.105156 85.0
134.074363 28.0
135.110841 38.0
135.11881 200.0
136.122728 22.0
137.066125 50.0
138.048473 24.0
139.06089 47.0
140.048028 26.0
141.061905 1034.0
142.064282 53.0
142.074802 79.0
143.03271 35.0
143.07371 600.0
144.065557 103.0
145.052575 1807.0
146.103342 26.0
147.094909 91.0
147.116309 217.0
148.112487 35.0
148.123217 50.0
149.058224 18.0
149.120424 44.0
149.134774 251.0
150.059762 63.0
150.108961 17.0
151.044179 16.0
151.053809 58.0
151.061039 165.0
151.077889 71.0
152.066856 158.0
153.069944 153.0
154.065401 53.0
154.073901 71.0
155.040889 44.0
155.077498 108.0
155.088468 120.0
156.085546 64.0
157.061273 16.0
157.105473 244.0
158.097921 41.0
159.073728 160.0
159.081128 232.0
159.095968 258.0
160.074845 42.0
161.084073 1411.0
162.05158 169.0
163.063258 950.0
164.059265 25.0
164.120765 28.0
165.072162 260.0
166.06418 33.0
166.07553 84.0
167.073067 215.0
168.083774 43.0
168.093944 45.0
169.093692 114.0
169.100072 117.0
170.073439 34.0
170.101549 40.0
171.089307 20.0
171.118787 218.0
172.076094 16.0
173.056682 35.0
173.134011 156.0
175.000306 14.0
175.114366 49.0
175.127326 84.0
175.148066 125.0
176.080154 38.0
177.070781 87.0
177.075991 126.0
177.128141 24.0
177.164641 23.0
178.079858 52.0
178.154368 69.0
179.068206 340.0
179.090496 605.0
180.086903 85.0
181.064981 34.0
181.082131 80.0
181.095301 48.0
182.099898 23.0
183.095355 67.0
183.115235 138.0
184.088213 19.0
185.0864 39.0
185.09173 97.0
185.10372 59.0
185.1304 132.0
186.052558 111.0
186.136737 23.0
187.105645 75.0
187.121705 77.0
187.139145 136.0
189.06039 24.0
189.0833 95.0
189.1035 53.0
189.13045 57.0
190.067917 25.0
191.065925 74.0
191.076765 84.0
191.110624 50.0
192.067912 21.0
192.084202 66.0
192.98269 20.0
193.071159 50.0
193.090199 80.0
194.060627 24.0
194.102927 36.0
195.067684 151.0
195.099154 120.0
196.074601 38.0
197.095119 23.0
197.133629 103.0
198.101736 25.0
199.063924 53.0
199.113684 73.0
199.142723 114.0
200.119891 28.0
200.158691 17.0
201.103618 42.0
201.134188 47.0
202.084206 61.0
202.184486 18.0
203.088113 34.0
203.113243 60.0
203.138373 72.0
203.170483 52.0
203.180263 58.0
204.070711 19.0
205.073928 24.0
205.097778 121.0
205.123038 36.0
206.103505 29.0
207.042613 55.0
207.067993 51.0
207.108873 45.0
208.10961 20.0
209.124107 41.0
209.136867 79.0
210.124025 25.0
211.062292 28.0
211.149112 147.0
213.155267 42.0
213.163847 606.0
214.171934 149.0
215.183832 1789.0
217.074767 42.0
217.152716 42.0
218.071794 26.0
219.107361 48.0
219.118951 45.0
219.134911 41.0
220.107589 22.0
221.098446 42.0
221.123196 58.0
221.146506 50.0
223.108771 63.0
223.126311 27.0
223.149741 43.0
225.147286 31.0
227.100591 34.0
227.13308 46.0
227.15966 32.0
229.115725 77.0
229.126105 77.0
229.166135 42.0
230.119203 28.0
230.166743 27.0
231.08763 29.0
231.14869 34.0
231.18145 221.0
232.180487 35.0
232.183467 129.0
233.121815 93.0
233.172695 53.0
233.193625 121.0
235.08232 21.0
235.11987 28.0
235.14841 47.0
237.076675 265.0
239.141549 28.0
239.170329 56.0
239.183969 20.0
241.104314 19.0
241.148424 26.0
242.075761 26.0
242.985009 37.0
243.145369 55.0
243.182029 20.0
244.090296 22.0
245.103004 130.0
246.113191 13.0
246.128561 24.0
247.134708 1748.0
248.164506 37.0
248.990813 22.0
249.159313 47.0
249.176323 83.0
250.17628 56.0
250.19176 169.0
251.181328 147.0
253.169423 36.0
253.195922 43.0
255.088698 1373.0
257.095292 22.0
257.106282 48.0
258.07479 21.0
259.116077 19.0
260.148384 33.0
261.119452 26.0
261.151102 50.0
263.181366 42.0
265.144531 31.0
265.198761 95.0
266.999716 26.0
267.196616 32.0
267.207846 71.0
269.105581 535.0
270.123768 32.0
271.079356 65.0
273.099221 1156.0
274.189828 16.0
275.076205 23.0
275.194825 19.0
277.13861 22.0
277.19729 30.0
277.20709 20.0
278.111417 25.0
279.174315 43.0
279.210325 22.0
281.05489 35.0
281.197769 66.0
281.227339 80.0
282.054277 17.0
283.071945 26.0
283.160934 20.0
283.197214 49.0
283.208754 74.0
285.152469 25.0
285.180579 44.0
285.200419 28.0
287.102814 177.0
287.116094 697.0
288.166111 20.0
289.089779 173.0
290.098356 26.0
291.110344 26.0
291.167163 37.0
291.207303 42.0
291.213983 138.0
293.183248 45.0
293.211748 55.0
295.122113 17.0
295.155773 46.0
295.181013 56.0
297.195688 22.0
297.207528 50.0
297.227788 17.0
299.173163 38.0
299.201962 30.0
300.16183 24.0
301.089228 29.0
301.203117 41.0
303.105182 29.0
303.166592 23.0
303.197262 37.0
305.126147 390.0
306.098864 56.0
307.107462 32.0
307.210492 27.0
308.193399 26.0
309.200296 89.0
309.220956 309.0
310.196724 20.0
311.201691 402.0
313.190486 19.0
313.207816 80.0
314.106504 33.0
315.112571 49.0
315.204731 19.0
315.251701 16.0
319.20011 48.0
321.194955 18.0
322.076903 57.0
322.124363 43.0
323.13788 7280.0
324.080688 21.0
324.108917 26.0
325.114925 1372.0
326.219842 46.0
327.214959 72.0
327.234459 147.0
328.195637 22.0
328.220477 21.0
328.247117 25.0
329.209764 228.0
331.224899 21.0
332.100867 50.0
332.115147 70.0
332.124067 32.0
333.112064 39.0
335.096039 18.0
335.205419 33.0
337.220793 493.0
339.191698 25.0
341.137583 67.0
341.159283 35.0
342.1425 24.0
343.210608 21.0
343.225138 73.0
345.144323 23.0
345.202552 46.0
345.213472 104.0
346.21527 59.0
346.25537 27.0
347.233087 48.0
351.134017 21.0
352.205004 17.0
353.215042 106.0
354.219159 172.0
355.232096 2676.0
356.231664 66.0
357.210421 25.0
358.134889 121.0
361.239431 20.0
364.138593 34.0
365.145 20.0
367.182625 21.0
371.225795 406.0
371.971703 28.0
372.232482 760.0
373.242419 10696.0
374.246147 46.0
374.678366 23.0
374.727675 50.0
374.809225 73.0
374.900255 125.0
375.215194 24.0
381.126439 25.0
383.162073 33.0
384.58047 25.0
389.233928 192.0
390.243445 579.0
391.250372 3751.0
399.117782 30.0
400.185099 20.0
401.238166 744.0
406.253563 28.0
411.27434 35.0
411.500839 30.0
414.209872 20.0
414.243752 30.0
417.143825 43.0
419.241269 43.0
421.271594 16.0
422.255391 17.0
435.157148 253.0
439.262027 21.0
445.259021 16.0
449.166141 73.0
452.158693 19.0
467.173114 33.0
468.185752 23.0
470.205826 16.0
481.247908 24.0
482.262795 16.0
483.263652 49.0
483.283032 62.0
484.17072 31.0
485.190827 2091.0
488.192619 22.0
498.296203 36.0
500.281548 27.0
501.285575 293.0
502.222553 29.0
503.30986 17.0
509.278904 27.0
515.285329 108.0
515.298699 194.0
516.299846 20.0
517.275254 23.0
518.209211 18.0
518.289531 36.0
531.303107 56.0
532.306154 86.0
533.271672 56.0
533.314642 2089.0
535.295957 47.0
549.29806 12.0
550.324847 152.0
551.318075 623.0
551.329545 826.0
552.289132 29.0
553.30488 331.0
561.306509 301.0
573.318077 44.0
574.315385 49.0
575.327652 36.0
579.312562 32.0
587.333231 16.0
593.376495 19.0
602.315552 44.0
621.324052 26.0
627.316036 17.0
645.325149 17.0
658.332986 15.0
659.361433 17.0
663.344332 33.0
664.35141 38.0
668.341809 19.0
677.349786 45.0
677.362546 93.0
693.347244 184.0
694.361342 67.0
695.340029 61.0
695.376229 515.0
697.348634 18.0
712.365445 41.0
712.391565 35.0
713.317462 43.0
713.382892 294.0
715.320387 24.0
715.359697 44.0
720.328124 19.0
722.380368 23.0
723.360166 1007.0
728.382733 82.0
730.332558 17.0
735.342005 15.0
736.370382 36.0
737.388869 102.0
749.381338 17.0
750.379195 27.0
750.400685 23.0
751.367043 54.0
752.40391 97.0
752.43083 54.0
758.399985 84.0
762.360064 6.0
767.383061 26.0
767.396611 51.0
783.386919 18.0
786.405901 15.0
789.381104 20.0
790.385991 29.0
799.417518 67.0
802.4061 17.0
806.326319 22.0
807.392047 32.0
808.394424 16.0
812.421394 20.0
813.415711 38.0
813.432501 38.0
820.367783 16.0
825.39511 58.0
826.405797 51.0
827.419884 28.0
829.410549 16.0
829.444359 18.0
838.400696 29.0
839.413633 34.0
842.393545 23.0
847.450722 52.0
847.484962 31.0
854.600844 28.0
855.397171 52.0
855.414381 128.0
856.434649 172.0
857.429756 6673.0
859.72321 19.0
875.419759 47.0
875.442959 46.0
889.419663 44.0
889.507312 38.0
889.533622 18.0
890.41332 28.0
890.44249 130.0
891.451337 482.0
892.434365 5009.0

