>compound 
>formula C12H15NO4
>parentmass 238.10738896616
>ionization [M + H]+
>instrumentation Unknown (LCMS)
>source file:/Users/fanzhoukong/Documents/GitHub/Libgen/data/EAD_PFP/0_unknown_/spectrum.ms
>quality UNKNOWN

>ms2peaks
50.013344 129.0
51.021534 510.0
52.028495 43.0
52.033435 34.0
53.038865 54.0
54.032305 17.0
55.016795 147.0
55.052405 15.0
56.049035 28.0
57.016875 16.0
57.069405 47.0
59.047395 64.0
60.054345 17.0
62.012745 13.0
63.023555 111.0
64.029995 32.0
65.038885 1072.0
66.048485 181.0
67.045815 41.0
67.053035 67.0
68.996145 174.0
73.041805 11.0
75.022545 40.0
76.021155 16.0
76.032255 22.0
77.040115 3696.0
78.046815 2077.0
79.055705 2665.0
80.051785 200.0
81.067325 59.0
81.070855 173.0
88.036125 15.0
89.039015 477.0
90.046645 1050.0
91.048735 33.0
91.057145 4390.0
92.038515 105.0
92.051675 69.0
92.062005 82.0
93.071436 2048.0
93.704776 15.0
94.041716 2553.0
95.048536 174.0
95.085786 34.0
102.026616 35.0
102.044436 86.0
103.037416 22.0
103.057306 2497.0
104.047196 107.0
104.053186 68.0
105.042826 35.0
105.069936 1788.0
106.054286 121.0
106.067406 452.0
107.050326 1144.0
108.057136 1884.0
109.067626 5094.0
110.989166 39.0
112.968096 19.0
113.000376 40.0
114.046216 19.0
115.041196 16.0
115.055906 141.0
116.035206 38.0
116.051036 111.0
116.677686 14.0
117.043036 261.0
117.058936 3364.0
117.678736 51.0
117.688296 24.0
118.066936 17357.0
118.669116 81.0
118.832446 21.0
119.073916 3780.0
119.524376 19.0
119.675436 29.0
119.741886 20.0
120.048666 222.0
120.065846 245.0
120.072286 149.0
120.078726 131.0
120.349396 24.0
120.580556 20.0
120.639736 27.0
121.068356 11048.0
121.985216 27.0
122.052306 26.0
122.071786 33.0
122.340356 14.0
122.428136 19.0
122.592946 16.0
122.689506 24.0
123.081536 2913.0
123.780256 25.0
124.075796 26.0
124.124906 23.0
124.661366 28.0
127.050556 22.0
128.054056 17.0
129.064806 19.0
130.056096 32.0
130.062796 30.0
131.047816 82.0
131.073596 61.0
132.057916 772.0
133.069646 7268.0
134.061407 624.0
135.073937 4099.0
135.725977 28.0
135.865237 15.0
136.606157 32.0
136.623347 33.0
136.627917 50.0
137.064547 10258.0
137.903047 27.0
138.013507 52.0
138.083727 47.0
138.746417 25.0
139.443107 14.0
139.709297 18.0
141.693987 16.0
143.074497 17.0
144.054607 30.0
145.045107 49.0
145.053377 27.0
146.031927 21.0
146.037847 37.0
146.047327 31.0
146.069817 28.0
147.033977 17.0
147.045847 188.0
148.068027 60.0
148.077577 158.0
149.053087 52.0
149.074617 185.0
149.572627 58.0
149.592997 192.0
149.604967 232.0
149.618137 70.0
149.776357 20.0
150.096637 24222.0
151.078777 1615.0
151.308847 183.0
151.330547 37.0
151.348627 171.0
151.452277 370.0
151.505327 39.0
152.131777 16.0
160.072137 250.0
161.062707 6264.0
169.364977 84.0
170.656347 199.0
172.480997 1794.0
174.089057 13.0
177.055048 40.0
178.061488 40.0
178.070628 57.0
178.476108 34.0
179.074698 7486.0
182.283648 51.0
182.672708 49.0
183.928718 61.0
185.234348 105.0
192.104608 828.0
193.671948 6.0
196.088398 132.0
196.097998 1535.0
200.035488 24.0
212.898128 28.0
216.686939 423.0
217.180399 660.0
220.093329 21.0
222.800419 193.0
226.922359 870.0
227.598719 24.0
229.423139 18.0
230.228069 6.0
231.949559 6.0
235.039159 14.0
237.252079 22.0
238.512189 15.0

