>compound 
>formula C20H24O10
>parentmass 442.17076796922
>ionization [M + H3N + H]+
>instrumentation Unknown (LCMS)
>source file:/Users/fanzhoukong/Documents/GitHub/Libgen/data/EAD_PFP/0_unknown_/spectrum.ms
>quality UNKNOWN

>ms2peaks
50.014444 276.0
51.023333 448.0
52.029582 85.0
53.037811 148.0
55.018608 70.0
55.054218 97.0
57.034226 54.0
57.939625 7.0
59.050723 423.0
60.025802 19.0
61.030301 69.0
63.022279 669.0
64.031058 84.0
65.039146 1054.0
66.044765 74.0
67.053284 174.0
68.997192 76.0
69.033002 81.0
70.06399 22.0
71.050599 60.0
73.066277 53.0
74.018086 56.0
75.022724 263.0
76.031563 109.0
77.035972 819.0
77.041132 1659.0
78.043501 187.0
78.050431 252.0
79.05497 1366.0
80.058918 96.0
81.033047 53.0
81.063917 39.0
82.075186 34.0
85.027312 286.0
86.012951 12.0
87.01889 21.0
88.032509 39.0
89.036298 867.0
90.046696 322.0
91.057185 1596.0
92.055454 162.0
92.062974 117.0
92.993973 27.0
93.062003 29.0
94.051222 55.0
95.01321 57.0
95.05523 39.0
97.028068 233.0
99.043596 30.0
100.026794 12.0
101.041443 79.0
102.045362 194.0
103.054261 539.0
104.04712 58.0
105.034708 65.0
105.052788 205.0
106.045117 100.0
107.050236 389.0
108.056015 113.0
109.062404 7.0
111.006591 12.0
113.003349 34.0
113.037719 33.0
114.041888 24.0
115.055746 574.0
116.052985 59.0
117.031204 45.0
117.044984 255.0
118.041213 262.0
119.049142 350.0
120.05813 259.0
121.018569 37.0
121.050899 34.0
121.075689 62.0
122.039108 8.0
123.045447 16.0
125.111074 27.0
126.048583 76.0
127.043682 122.0
127.050312 344.0
128.064871 756.0
129.05342 90.0
129.069 163.0
130.040179 25.0
130.061419 124.0
131.051997 1028.0
132.079026 25.0
133.036575 86.0
134.039564 118.0
135.047453 480.0
136.053401 68.0
139.056658 72.0
141.066975 76.0
141.925784 27.0
142.083374 31.0
143.078813 106.0
144.056582 79.0
144.081262 23.0
145.032941 1393.0
145.964079 14.0
146.036279 208.0
147.049008 6062.0
148.053327 441.0
149.021596 21.0
149.053886 83.0
149.064646 146.0
150.036215 191.0
151.048253 47.0
151.059083 104.0
152.064902 400.0
153.070411 548.0
154.06587 53.0
155.049909 184.0
155.063329 117.0
155.070649 173.0
155.081639 190.0
156.056667 79.0
156.067667 70.0
157.038436 135.0
157.051956 146.0
157.067896 107.0
158.036835 48.0
158.055305 73.0
158.068855 52.0
159.045814 685.0
160.053053 186.0
161.027401 127.0
161.034861 155.0
161.054751 131.0
162.03091 86.0
163.040009 4129.0
164.048508 877.0
165.057587 57.0
165.067657 118.0
166.062185 21.0
166.071035 21.0
167.052114 24.0
167.082494 46.0
168.060213 90.0
168.065273 97.0
169.063692 138.0
170.059951 21.0
170.075281 34.0
171.042479 26.0
171.079649 1132.0
172.072808 18.0
173.028927 179.0
173.044377 236.0
173.061117 187.0
174.032886 575.0
175.039775 2769.0
176.048273 3922.0
177.055742 172.0
178.029501 230.0
178.041251 74.0
179.03475 296.0
180.078319 19.0
181.069567 666.0
182.033106 19.0
183.046945 293.0
183.053575 163.0
184.055634 304.0
185.060393 529.0
186.039852 18.0
186.073251 45.0
187.0393 283.0
188.049509 55.0
189.055668 178.0
189.087998 150.0
190.042927 122.0
190.398276 17.0
190.415836 51.0
191.042226 8237.0
192.044164 2226.0
193.048693 202.0
193.054143 347.0
195.041011 31.0
197.050438 40.0
197.061438 182.0
198.072127 87.0
199.075696 899.0
200.048565 176.0
201.052974 700.0
202.027852 86.0
202.051522 120.0
202.065452 116.0
203.037201 7059.0
204.04347 2869.0
205.052229 2438.0
206.098628 21.0
207.033526 87.0
208.118865 28.0
209.032814 27.0
209.059724 256.0
210.073693 23.0
211.044562 145.0
212.03767 31.0
212.0505 196.0
213.060229 266.0
213.803018 21.0
214.065218 38.0
215.035217 393.0
215.066827 32.0
216.043396 146.0
216.079396 22.0
217.051044 37.0
217.074124 193.0
217.090014 190.0
218.315723 20.0
219.055982 58.0
219.066132 373.0
220.095331 19.0
221.04538 59.0
224.080786 52.0
225.046735 25.0
225.054085 42.0
226.054524 51.0
226.083994 24.0
227.076372 1187.0
228.051701 127.0
228.076851 21.0
229.05582 2895.0
230.060639 1263.0
231.031938 402.0
232.073916 26.0
233.041955 25.0
233.061395 36.0
233.079355 39.0
238.063559 22.0
241.053536 51.0
241.083956 36.0
241.091556 33.0
243.065373 219.0
243.328123 45.0
244.075942 96.0
244.083602 65.0
245.090151 8769.0
246.08648 35.0
246.475449 15.0
247.066369 679.0
253.083131 29.0
254.02532 8.0
255.055269 70.0
255.064649 200.0
257.086897 63.0
261.074562 25.0
262.085401 157.0
262.19642 103.0
262.22498 61.0
263.093419 18151.0
264.103368 104.0
264.452158 182.0
280.115769 21.0
281.143048 8.0
283.059885 15.0
299.093076 8.0
305.099999 25.0
327.296073 8.0
331.331468 8.0
334.280194 13.0
335.000593 8.0
337.49208 7.0
339.061408 8.0
341.093756 13.0
344.980131 14.0
349.617186 8.0
424.214047 16.0
442.258335 20.0

