>compound 
>formula C27H28O13
>parentmass 561.16027195685
>ionization [M + H]+
>instrumentation Unknown (LCMS)
>source file:/Users/fanzhoukong/Documents/GitHub/Libgen/data/EAD_PFP/0_unknown_/spectrum.ms
>quality UNKNOWN

>ms2peaks
104.022947 20.0
117.034225 29.0
119.052187 193.0
121.023808 44.0
121.038888 58.0
122.023799 52.0
127.056792 122.0
128.056973 79.0
129.032154 1624.0
130.035584 74.0
130.064624 55.0
130.902775 22.0
131.050755 267.0
132.021466 1603.0
133.030806 1117.0
134.036047 946.0
135.045048 3415.0
136.053268 399.0
137.050339 55.0
137.058369 279.0
139.04268 69.0
141.066872 35.0
142.254962 35.0
144.018854 30.0
145.029304 469.0
146.037365 105.0
147.044166 1354.0
149.028687 46.0
155.071791 29.0
157.039602 28.0
158.033083 47.0
160.014574 214.0
161.024865 253.0
161.041025 195.0
162.034596 685.0
162.495066 34.0
162.526286 54.0
163.049976 8743.0
164.048467 2929.0
165.063838 453.0
166.026798 37.0
166.029338 174.0
167.065999 79.0
167.072339 328.0
167.086249 78.0
168.06018 61.0
168.09065 38.0
169.06748 72.0
169.09806 45.0
169.842811 30.0
170.039481 63.0
172.016252 49.0
172.115202 32.0
173.025033 262.0
174.034174 524.0
174.451844 38.0
174.472544 82.0
175.048824 12178.0
176.046955 976.0
176.606305 39.0
177.020536 225.0
177.033566 329.0
177.037496 200.0
177.053136 172.0
178.025556 33.0
178.053006 95.0
178.064776 507.0
179.071447 5978.0
180.046768 177.0
180.057288 194.0
180.073058 85.0
180.086218 220.0
181.049788 2544.0
182.080709 30.0
182.190429 82.0
183.07744 64.0
185.044421 39.0
187.036642 82.0
188.048183 135.0
189.055684 164.0
189.070524 69.0
190.060514 33.0
191.024655 51.0
191.059865 143.0
191.073405 454.0
192.042826 886.0
193.051466 198.0
194.047707 61.0
194.059997 68.0
195.082108 96.0
196.071238 26.0
197.071119 25.0
197.131639 29.0
199.796521 51.0
200.062471 20.0
201.071072 27.0
201.159972 38.0
202.066893 43.0
203.141973 148.0
204.070114 59.0
205.070535 104.0
205.081765 45.0
206.060735 367.0
206.370215 104.0
206.387105 205.0
207.073046 17287.0
208.318257 77.0
209.044207 2951.0
215.669282 538.0
223.059967 69.0
224.067707 872.0
225.073308 18.0
231.073772 30.0
233.112393 36.0
235.063855 41.0
260.571662 66.0
265.048505 21.0
271.066179 12.0
274.397211 12.0
277.069843 43.0
278.478844 12.0
281.051355 29.0
282.090236 20.0
284.267908 12.0
287.004639 39.0
292.981783 12.0
298.607337 12.0
314.052598 12.0
318.07564 50.0
319.081041 805.0
327.078486 45.0
334.121211 12.0
337.093083 404.0
345.097018 24.0
345.107948 25.0
350.079352 18.0
358.483597 12.0
362.83879 25.0
363.113151 1602.0
366.291643 21.0
369.096155 36.0
381.120883 445.0
398.093214 40.0
398.126444 114.0
407.09545 22.0
451.13698 79.0
497.13857 51.0
524.147649 12.0
532.166884 28.0
542.133871 106.0
542.143021 253.0
543.117451 199.0
543.151691 4500.0
543.174521 5042.0
560.159213 33.0
561.179843 95.0
561.237823 178.0
561.293543 157.0

