>compound 
>formula C26H34O13
>parentmass 577.18916215023
>ionization [M + Na]+
>instrumentation Unknown (LCMS)
>source file:/Users/fanzhoukong/Documents/GitHub/Libgen/data/EAD_PFP/0_unknown_/spectrum.ms
>quality UNKNOWN

>ms2peaks
50.016642 229.0
51.022761 634.0
52.02971 103.0
53.039368 195.0
54.033517 36.0
55.056526 486.0
56.059045 33.0
57.067653 27.0
57.071353 34.0
57.934542 14.0
58.065842 20.0
60.985288 58.0
62.013937 35.0
63.024756 196.0
64.028845 33.0
65.040073 1440.0
66.044112 118.0
67.054221 372.0
68.04453 34.0
68.995709 263.0
71.050746 19.0
74.015712 30.0
75.016081 35.0
75.023721 52.0
76.02916 118.0
77.042139 1082.0
78.042787 250.0
79.053386 565.0
80.053815 128.0
81.072014 172.0
82.066462 37.0
83.046441 30.0
83.088411 45.0
84.08613 10.0
85.031079 30.0
87.024536 16.0
89.040154 257.0
90.045003 62.0
91.056421 1363.0
92.05751 144.0
93.062179 74.0
93.066899 107.0
94.067548 67.0
95.059216 35.0
95.082146 56.0
96.082975 13.0
98.975542 16.0
99.99073 31.0
100.11125 19.0
102.043568 72.0
103.054436 181.0
104.051305 80.0
104.058295 31.0
105.072044 165.0
106.067503 83.0
107.060552 44.0
107.073731 76.0
108.08267 29.0
109.095329 27.0
110.102418 14.0
110.998517 33.0
112.996254 59.0
113.004584 38.0
114.039983 26.0
115.055942 851.0
116.06056 128.0
117.063199 137.0
117.068499 187.0
118.066948 83.0
119.073927 57.0
120.065845 27.0
120.088385 11.0
121.090984 28.0
124.995159 45.0
126.047688 60.0
127.052727 121.0
128.061756 354.0
129.068094 174.0
130.063853 81.0
130.076143 33.0
131.048852 42.0
131.061182 38.0
131.081392 46.0
132.022941 18.0
132.081481 15.0
133.076329 45.0
133.102339 18.0
134.095348 30.0
134.994167 32.0
135.093197 22.0
135.119387 24.0
139.009522 25.0
139.053412 84.0
140.055591 35.0
141.068359 171.0
142.078928 47.0
143.076707 59.0
144.080316 53.0
145.080344 56.0
145.098044 56.0
145.969033 29.0
146.090963 36.0
147.077752 36.0
147.964161 24.0
149.06009 51.0
150.048438 24.0
151.053297 59.0
152.061506 140.0
153.069425 63.0
154.070963 52.0
155.067232 79.0
156.088731 26.0
157.08902 28.0
158.092488 20.0
159.086827 27.0
159.111537 13.0
160.100376 14.0
161.069925 26.0
161.093545 20.0
162.127173 16.0
163.007742 21.0
163.061522 22.0
164.062551 34.0
165.06413 69.0
165.06915 163.0
166.076329 41.0
167.073877 79.0
168.059186 29.0
168.085856 42.0
169.097075 14.0
170.081924 27.0
171.095272 22.0
171.118322 25.0
173.06009 43.0
174.102939 36.0
175.042617 18.0
175.106147 21.0
176.058936 39.0
176.979115 18.0
177.057295 37.0
178.067654 14.0
178.075504 77.0
179.033692 360.0
180.077271 32.0
180.083841 34.0
181.07115 30.0
181.083 39.0
182.091549 33.0
182.188059 52.0
183.101557 31.0
183.194357 10.0
184.101086 28.0
185.039345 66.0
186.038774 20.0
186.125644 15.0
186.990013 16.0
187.054313 19.0
188.048421 20.0
189.05055 104.0
189.05728 198.0
190.071559 63.0
190.993778 27.0
191.003238 58.0
191.034378 48.0
191.060108 34.0
192.079726 43.0
192.986375 72.0
193.077555 26.0
193.985174 20.0
194.088894 23.0
195.115183 23.0
198.124789 20.0
199.024848 21.0
199.037278 52.0
201.043515 45.0
201.060195 27.0
202.074094 20.0
202.079664 40.0
203.055653 302.0
204.081552 21.0
205.04409 29.0
205.08479 62.0
205.15213 19.0
206.096109 17.0
207.025358 32.0
207.036618 138.0
208.035787 34.0
208.073937 25.0
209.018945 20.0
209.040185 29.0
209.108195 21.0
210.089604 13.0
211.024933 25.0
212.136382 15.0
213.05052 39.0
214.071239 28.0
215.032638 23.0
215.078608 31.0
216.095537 36.0
217.047005 118.0
218.104744 26.0
219.073683 66.0
219.102683 18.0
220.070932 13.0
221.063161 28.0
225.044096 14.0
226.059254 17.0
228.080142 19.0
229.045741 22.0
230.060959 21.0
231.067988 370.0
232.072737 35.0
232.081687 42.0
233.064716 92.0
233.079656 284.0
235.095553 30.0
235.104573 29.0
236.095482 21.0
243.085533 14.0
247.062078 74.0
248.062417 25.0
249.072496 841.0
251.087953 18.0
263.046099 15.0
265.021526 45.0
266.999524 29.0
269.071631 117.0
271.079199 25.0
277.068331 143.0
281.051446 171.0
282.050865 37.0
283.048724 26.0
289.057996 16.0
291.073464 19.0
291.091844 66.0
293.047281 13.0
293.196541 13.0
299.073124 14.0
301.146941 25.0
303.014709 17.0
309.048662 24.0
309.107202 14.0
311.056479 13.0
313.088147 31.0
313.098557 169.0
315.093394 14.0
319.079319 23.0
321.094857 17.0
323.063904 16.0
325.123752 90.0
337.111097 14.0
339.076275 22.0
339.114155 24.0
341.079722 123.0
351.08267 15.0
351.10471 45.0
353.121217 34.0
355.117675 34.0
357.130882 38.0
359.09035 22.0
361.094287 14.0
365.122632 29.0
367.10011 31.0
377.119078 16.0
379.100155 125.0
381.117023 25.0
383.13347 166.0
385.116808 20.0
385.124468 43.0
387.087905 14.0
390.113961 14.0
391.10524 6.0
393.116828 81.0
395.121895 26.0
395.139405 10.0
397.122313 16.0
397.130133 47.0
398.138092 145.0
401.146148 217.0
409.111958 88.0
411.131545 6513.0
412.817643 18.0
413.112293 42.0
415.13371 166.0
429.133693 13.0
442.116707 18.0
443.132786 228.0
447.123781 41.0
455.130181 6.0
461.166884 15.0
487.191451 63.0
518.178533 45.0
529.165219 13.0
531.188527 10.0
531.206597 15.0
545.16465 33.0
546.173798 16.0
547.176977 14.0
549.209135 32.0
559.178542 78.0
575.177973 241.0
576.183951 1124.0
577.19085 7473.0

