>compound 
>formula C15H14O6
>parentmass 291.0863
>ionization [M + H]+
>instrumentation Unknown (LCMS)
>source file:/Users/fanzhoukong/Documents/GitHub/Libgen/data/NIST_MONA/0_unknown_/spectrum.ms
>quality UNKNOWN

>ms2peaks
65.0231 0.888252
68.0348 0.974212
69.034 0.773639
78.0185 0.515759
81.033 2.063037
82.0415 0.601719
83.0123 0.544413
89.011 0.630372
91.0994 0.716332
93.0329 1.719198
95.0482 2.378223
105.0336 1.174785
105.042 1.002865
105.0656 0.659026
111.0404 0.945559
114.0264 0.802292
117.0079 1.489971
119.049 3.237822
121.076 0.716332
122.0354 0.659026
123.0438 48.567335
123.9802 0.945559
124.011 1.146132
136.0595 1.060172
137.0592 0.716332
139.0382 100.0
140.0421 10.429799
141.0435 0.659026
141.9854 0.630372
145.0519 1.174785
147.0431 42.722063
149.0611 0.945559
151.0386 6.189112
153.0531 1.232092
156.0446 1.977077
157.9855 1.346705
161.0588 10.401146
162.0627 0.945559
163.0387 10.945559
164.0433 0.859599
164.0593 0.802292
165.0537 49.197708
166.058 4.641834
169.0481 3.925501
170.0562 1.117479
175.0849 0.916905
176.0696 0.601719
177.0041 0.515759
177.0534 2.120344
178.0142 0.974212
179.0701 9.111748
180.0743 0.945559
181.0488 3.180516
182.0528 0.744986
186.9736 0.773639
187.04 1.203438
189.0553 3.638968
190.0638 1.088825
190.0834 0.515759
194.0453 0.573066
197.0579 1.174785
198.0995 0.974212
200.0448 1.862464
203.0689 2.43553
205.0495 3.352436
205.0872 2.091691
206.0939 1.318052
207.0652 70.286533
208.0686 6.676218
209.0687 0.659026
213.0548 0.716332
227.0676 1.174785
231.063 3.782235
232.0673 1.747851
241.0828 1.375358
243.0654 1.375358
249.0749 6.103152
250.0793 3.123209
255.0638 1.203438
255.0842 0.601719
271.062 0.859599
273.0405 1.289398
273.0758 7.077364
274.0791 2.148997
291.0862 15.04298

