>compound 
>formula C28H36N2O4
>parentmass 465.27478864742
>ionization [M + H]+
>instrumentation Unknown (LCMS)
>source file:/Users/fanzhoukong/Documents/GitHub/Libgen/data/EAD_PFP/0_unknown_/spectrum.ms
>quality UNKNOWN

>ms2peaks
50.014491 120.0
51.023392 309.0
52.029642 35.0
53.037883 92.0
54.033464 27.0
55.055024 450.0
56.048735 16.0
56.058275 14.0
57.068366 21.0
57.933766 8.0
59.049337 8.0
60.984518 23.0
62.013939 33.0
63.022419 139.0
64.03199 16.0
65.039301 690.0
66.047311 50.0
67.054252 231.0
68.048603 26.0
68.994113 162.0
69.069813 22.0
70.063354 6.0
73.045546 11.0
74.015777 23.0
75.035667 16.0
75.045007 398.0
76.027518 39.0
77.037058 1052.0
78.047199 136.0
79.05434 524.0
80.05128 113.0
81.069461 93.0
82.065682 24.0
83.085832 43.0
84.080853 14.0
85.051974 16.0
87.021005 9.0
88.030046 14.0
89.041216 205.0
90.045137 89.0
91.053757 1318.0
92.055778 87.0
93.063279 96.0
94.065809 85.0
95.0632 21.0
95.08326 16.0
95.08804 17.0
96.077381 14.0
98.090832 9.0
99.042983 10.0
99.995803 11.0
101.037864 16.0
102.047715 176.0
103.052645 366.0
104.052496 60.0
104.054496 74.0
105.072246 333.0
105.551777 9.0
106.066697 101.0
107.050628 171.0
108.063538 21.0
108.079828 70.0
109.065869 9.0
110.09853 37.0
110.99771 17.0
111.04106 12.0
112.006271 6.0
112.997532 31.0
114.032902 8.0
114.046502 26.0
115.055133 1049.0
116.055534 179.0
117.060264 586.0
118.066145 255.0
119.049595 69.0
119.057075 59.0
119.065625 72.0
119.075245 31.0
120.060736 35.0
120.070396 48.0
120.080056 83.0
121.065377 337.0
122.075287 19.0
122.083947 21.0
122.096937 55.0
124.113149 30.0
124.999819 7.0
125.060059 7.0
126.05017 53.0
126.905091 12.0
127.047491 29.0
127.054111 315.0
128.055391 43.0
128.063161 457.0
129.069502 218.0
130.065263 420.0
131.055883 97.0
131.067093 251.0
133.065344 316.0
133.075524 101.0
134.061615 82.0
134.074105 104.0
135.044566 107.0
135.076436 16.0
136.111056 13.0
137.061297 10.0
139.059518 37.0
139.066448 36.0
140.052449 28.0
141.06985 231.0
141.9275 7.0
142.06526 73.0
143.074691 200.0
144.080652 495.0
145.077162 41.0
145.086602 933.0
146.064073 594.0
147.072153 417.0
148.077744 530.0
149.065235 145.0
149.081965 43.0
150.066785 670.0
151.063296 28.0
151.076536 305.0
152.061877 240.0
153.055257 13.0
153.069807 176.0
154.070118 512.0
155.071259 110.0
155.074929 212.0
156.081759 1088.0
157.05623 13.0
157.07712 81.0
157.08693 137.0
158.059641 12.0
158.078101 25.0
158.096581 156.0
159.071161 223.0
159.094621 7.0
159.105751 12.0
160.077212 1082.0
161.062842 8.0
161.082742 1000.0
162.092643 774.0
163.064434 328.0
164.066724 35.0
164.088054 150.0
164.531325 8.0
165.092215 3155.0
166.067886 129.0
167.075556 487.0
168.081187 599.0
169.079648 175.0
169.088558 219.0
170.070848 35.0
170.096388 282.0
171.068789 122.0
171.085429 78.0
171.104659 39.0
172.058069 11.0
172.07863 268.0
173.0863 182.0
174.065891 347.0
174.077511 451.0
174.089161 132.0
175.071561 257.0
176.072362 1814.0
177.083823 1132.0
178.089003 508.0
179.070834 23.0
179.090504 44.0
179.106234 87.0
180.082965 151.0
181.087405 176.0
182.094636 240.0
183.078147 133.0
183.094057 79.0
184.077617 556.0
184.096217 49.0
185.086438 515.0
186.094028 790.0
187.065479 9.0
187.076209 23.0
187.098989 84.0
188.07173 892.0
188.08785 52.0
189.08199 409.0
189.468811 10.0
190.089591 5237.0
191.093072 571.0
192.103282 2729.0
192.986843 23.0
193.084833 25.0
193.093003 30.0
193.110703 19.0
194.096194 71.0
194.113934 27.0
195.078714 16.0
195.101984 43.0
196.074695 32.0
196.093905 90.0
196.098025 145.0
196.108995 131.0
197.088346 141.0
198.092176 759.0
199.102737 456.0
200.110307 407.0
200.132478 78.0
201.081528 329.0
202.092689 226.0
202.117759 41.0
203.099419 464.0
204.10305 820.0
205.110541 1352.0
206.120531 544.0
207.037132 80.0
208.101313 17.0
208.114023 25.0
209.023703 9.0
209.091693 12.0
209.117193 52.0
210.094384 86.0
210.128454 43.0
211.096625 12.0
211.112265 47.0
211.116545 115.0
211.133635 401.0
212.108375 849.0
213.089666 58.0
213.113976 806.0
214.096136 561.0
214.117636 146.0
215.096367 492.0
215.120797 23.0
216.104698 571.0
217.109598 99.0
217.129818 42.0
218.118299 1053.0
219.12642 14.0
220.1078 6.0
220.13106 53.0
222.118032 12.0
223.097292 10.0
223.113392 15.0
224.040593 10.0
224.069913 60.0
224.100713 60.0
224.110983 95.0
225.078444 26.0
225.119614 64.0
225.150474 34.0
226.090734 1184.0
227.103805 292.0
227.162865 11.0
228.111755 1913.0
228.141345 8.0
229.114526 1072.0
230.120967 1976.0
231.116197 31.0
231.129617 112.0
232.132998 291.0
233.143059 7.0
237.078481 7.0
238.084102 11.0
238.112822 17.0
238.124922 39.0
239.084283 8.0
239.097923 20.0
239.119133 35.0
239.132763 33.0
240.124523 218.0
240.135143 173.0
241.116804 118.0
241.121384 176.0
241.133524 119.0
242.132474 3174.0
242.153824 7.0
243.125835 812.0
244.138096 8092.0
245.150876 149.0
246.153507 1271.0
248.166398 14.0
250.98456 6.0
252.100121 25.0
254.123072 495.0
255.128193 101.0
256.136873 3505.0
257.145974 1448.0
258.153905 6752.0
259.155925 415.0
260.164586 819.0
261.134107 11.0
261.151527 12.0
265.018969 24.0
267.00496 9.0
268.136271 45.0
268.980702 7.0
269.142992 9.0
270.149982 1355.0
271.157243 46.0
271.252423 14.0
272.169634 10151.0
273.172564 688.0
274.185445 7960.0
275.187186 92.0
276.198906 42.0
276.213556 23.0
281.053769 43.0
282.05645 15.0
282.14364 26.0
283.054341 13.0
284.164601 146.0
285.156302 9.0
286.182853 1015.0
287.188013 44.0
288.178284 15.0
288.198244 69.0
289.203585 7.0
298.14783 11.0
298.18335 237.0
299.177161 15.0
309.125137 6.0
313.18941 8.0
378.168822 8.0
380.192743 17.0
390.17475 9.0
394.208042 9.0
403.247138 19.0
405.224589 11.0
406.20527 14.0
407.20295 10.0
417.256977 13.0
418.197987 9.0
418.266098 10.0
419.208268 6.0
420.203699 12.0
420.217759 76.0
421.212389 11.0
421.224449 19.0
421.252589 19.0
431.233426 10.0
431.247646 10.0
432.224697 11.0
433.223207 25.0
433.251767 107.0
434.222898 9.0
435.197148 17.0
435.242098 70.0
435.264588 51.0
436.246159 8.0
445.251955 23.0
445.272625 12.0
446.257146 11.0
447.244786 11.0
447.273816 7.0
448.252207 287.0
449.242077 282.0
450.241378 23.0
450.262158 26.0
463.261246 485.0
463.718887 56.0
463.737877 40.0
463.773757 32.0
463.799057 25.0
464.223197 30.0
464.263297 76.0
464.706687 8.0
464.784807 10.0
464.860857 6.0
464.903097 7.0
465.277028 15598.0

