>compound 
>formula C24H26O13
>parentmass 545.1265618923901
>ionization [M + Na]+
>instrumentation Unknown (LCMS)
>source file:/Users/fanzhoukong/Documents/GitHub/Libgen/data/EAD_PFP/0_unknown_/spectrum.ms
>quality UNKNOWN

>ms2peaks
50.015461 278.0
51.022971 663.0
52.028522 205.0
53.037453 119.0
54.038073 22.0
55.053864 695.0
56.051965 43.0
57.068655 40.0
57.070875 74.0
59.047367 50.0
60.981758 56.0
62.016559 40.0
63.021949 257.0
64.02837 41.0
65.039611 1847.0
66.044431 141.0
67.054562 778.0
68.027093 70.0
68.995243 103.0
71.012305 19.0
73.046706 31.0
75.013937 53.0
76.029558 174.0
77.044269 1477.0
78.044939 463.0
79.05641 572.0
80.054241 144.0
81.069801 379.0
82.074002 19.0
83.086173 100.0
85.023414 72.0
85.048704 134.0
86.018115 12.0
89.036017 230.0
89.039717 459.0
91.057848 1502.0
92.054249 167.0
93.069299 248.0
94.06712 141.0
95.083621 175.0
97.030712 54.0
98.097023 15.0
99.044323 16.0
100.113764 69.0
102.047105 142.0
103.056006 178.0
104.054877 78.0
105.069617 397.0
106.071118 66.0
107.075339 62.0
108.065969 47.0
109.09082 18.0
110.031091 10.0
111.041461 23.0
113.002093 23.0
115.053434 1492.0
116.058055 117.0
117.067035 432.0
118.064426 52.0
118.071876 74.0
119.084207 98.0
120.081548 59.0
121.074418 50.0
121.101368 56.0
122.101689 78.0
123.08764 24.0
125.062681 17.0
126.048392 81.0
126.903312 26.0
127.054542 356.0
128.059143 716.0
129.067704 238.0
129.075504 47.0
130.073534 101.0
131.065295 76.0
132.013556 45.0
132.084476 45.0
133.087256 59.0
134.097227 52.0
135.025658 17.0
135.111038 29.0
137.026199 22.0
139.05304 116.0
140.051731 37.0
141.055182 29.0
141.069142 357.0
141.926792 12.0
142.070382 101.0
143.073983 114.0
143.083353 60.0
144.081124 60.0
145.055214 50.0
145.084714 136.0
145.096504 64.0
145.968665 22.0
146.079935 34.0
147.079756 25.0
147.099956 64.0
148.102066 70.0
149.095627 222.0
150.100878 219.0
151.055338 57.0
152.061159 205.0
153.0715 107.0
154.07791 146.0
155.071751 77.0
156.090812 32.0
157.091112 37.0
158.098303 121.0
159.112434 31.0
161.109345 59.0
163.041156 40.0
164.059697 61.0
165.070078 367.0
166.070928 95.0
167.077339 59.0
167.102659 355.0
168.07154 32.0
168.09948 116.0
168.10838 192.0
169.06233 31.0
169.08399 69.0
170.082871 44.0
171.070582 17.0
171.112862 36.0
172.090722 51.0
172.108712 25.0
173.120333 29.0
174.057374 35.0
175.025454 20.0
175.108394 27.0
176.061185 98.0
177.063496 53.0
178.076476 156.0
179.085797 107.0
180.072998 49.0
180.088768 101.0
181.061588 36.0
181.093238 44.0
182.095189 47.0
182.194359 133.0
183.02965 93.0
183.07473 79.0
184.01304 122.0
184.02234 121.0
185.024361 415.0
186.030452 20.0
186.111962 18.0
187.051302 44.0
187.147792 13.0
189.062374 96.0
189.071804 177.0
190.069894 48.0
190.997525 74.0
192.006096 17.0
192.086206 49.0
192.981976 98.0
193.093596 25.0
194.098137 63.0
195.076548 23.0
195.116258 23.0
196.073908 27.0
197.101299 25.0
198.04866 67.0
199.03699 44.0
199.0591 44.0
200.054081 37.0
201.071002 21.0
202.077973 136.0
203.028823 65.0
203.143293 232.0
204.079854 12.0
204.145634 73.0
205.074685 42.0
206.094415 26.0
207.032096 146.0
208.041147 42.0
208.116037 22.0
209.015817 23.0
209.018657 66.0
209.130557 14.0
210.103528 25.0
210.987668 32.0
211.142789 25.0
211.992009 20.0
212.96874 16.0
213.0717 28.0
215.085501 43.0
216.085172 51.0
217.084253 38.0
218.092893 25.0
219.069064 23.0
219.118364 18.0
221.045405 325.0
221.080365 83.0
222.136166 9.0
224.145337 21.0
225.042358 27.0
226.082549 31.0
227.083809 29.0
228.08725 20.0
229.097391 36.0
231.024542 21.0
231.133242 11.0
232.205313 17.0
234.112514 28.0
236.141885 26.0
238.077217 13.0
239.080427 32.0
240.173778 12.0
241.087069 38.0
244.120411 35.0
245.094851 22.0
248.984134 9.0
248.988774 38.0
249.152654 24.0
250.975975 37.0
252.099266 17.0
254.189387 15.0
257.129399 11.0
259.142471 18.0
261.107922 21.0
265.035655 58.0
266.022165 27.0
267.005696 35.0
268.976637 21.0
269.101947 16.0
269.983328 23.0
271.103169 36.0
272.24797 8.0
276.129662 20.0
277.079523 13.0
279.170704 18.0
281.046315 96.0
282.052276 47.0
283.050167 36.0
289.161071 15.0
293.073914 31.0
293.139314 72.0
294.144834 229.0
299.061068 27.0
301.279369 8.0
309.138044 66.0
311.149616 335.0
312.150926 464.0
315.063678 19.0
319.072161 21.0
320.091392 17.0
324.989375 19.0
327.090756 21.0
327.308737 37.0
329.159848 211.0
330.163018 474.0
333.0708 15.0
333.09939 8.0
337.087583 58.0
341.014466 12.0
341.032536 8.0
343.143377 13.0
347.07606 2797.0
348.08054 174.0
349.095651 44.0
355.067735 16.0
357.204817 12.0
363.062611 34.0
364.075031 27.0
365.083212 2304.0
369.122395 23.0
377.08478 50.0
378.093631 36.0
380.084902 28.0
381.065313 58.0
382.064183 55.0
382.067993 229.0
383.073944 185.0
393.116771 8.0
395.073162 43.0
395.108192 8.0
400.120585 8.0
403.153797 18.0
406.43935 8.0
409.086141 24.0
409.177291 8.0
411.069903 56.0
416.080286 8.0
421.125059 17.0
422.08252 49.0
426.125393 14.0
439.073431 48.0
441.206733 8.0
443.231764 8.0
453.082291 32.0
455.123922 22.0
455.132282 54.0
456.142263 166.0
459.094965 8.0
468.103481 23.0
469.081082 27.0
471.130763 28.0
483.130621 54.0
485.249552 9.0
496.11672 13.0
497.09908 20.0
509.275049 9.0
513.100091 28.0
514.110292 16.0
527.118841 52.0
527.152591 23.0
529.167552 8.0
542.307081 32.0
543.087541 34.0
544.099382 191.0
544.119952 835.0
545.134963 4087.0

