>compound 
>formula C20H26O2
>parentmass 299.2006
>ionization [M + H]+
>instrumentation Unknown (LCMS)
>source file:/Users/fanzhoukong/Documents/GitHub/Libgen/data/NIST_MONA/0_unknown_/spectrum.ms
>quality UNKNOWN

>ms2peaks
81.0699 0.180511
83.049 0.313746
93.0698 0.143449
95.0856 0.150271
105.0698 0.11931
107.0491 0.190948
107.0855 0.139075
109.0648 0.879712
111.0805 0.151533
119.0854 0.462715
131.0854 0.175097
133.1012 0.243364
135.0802 0.320662
135.117 0.112885
137.0958 0.137143
143.0856 0.187614
145.1012 0.466855
147.117 0.141143
149.0963 0.289189
157.1012 0.217073
159.1169 0.203886
161.096 0.160488
161.1324 0.134298
163.1116 0.158212
169.1013 0.273838
171.1166 0.481974
173.1325 0.329472
175.112 0.167911
183.1169 0.241606
185.0962 0.238406
185.1324 0.312308
187.1115 0.244703
189.1276 0.21536
195.1168 0.167579
197.1325 0.221681
199.1481 0.228775
207.1168 0.239286
211.1118 0.110873
211.148 0.174715
213.1271 0.110449
213.1638 0.254609
215.1432 0.146288
221.1322 0.266937
223.1483 0.6019
225.1274 0.118118
231.1743 1.234956
235.1485 0.245002
237.1637 0.109285
239.1795 0.486837
241.1588 0.241873
253.1585 0.183294
253.1949 0.11773
257.1906 0.290054
263.1795 0.759472
281.1899 2.099908
299.2006 100.0

