>compound 
>formula C11H18O8
>parentmass 301.0893885367001
>ionization [M + Na]+
>instrumentation Unknown (LCMS)
>source file:/Users/fanzhoukong/Documents/GitHub/Libgen/data/EAD_PFP/0_unknown_/spectrum.ms
>quality UNKNOWN

>ms2peaks
50.011867 141.0
51.020066 317.0
52.028435 38.0
53.037404 61.0
55.053863 114.0
57.068711 32.0
58.062471 75.0
61.007928 110.0
62.012887 39.0
63.021386 300.0
64.026265 43.0
65.034345 538.0
66.039954 80.0
67.050863 73.0
68.054102 58.0
68.992351 194.0
70.063251 17.0
71.06474 7.0
72.934187 24.0
75.010206 84.0
77.031935 27.0
77.035375 657.0
78.037734 109.0
79.050053 248.0
80.045242 90.0
81.066052 85.0
82.064041 33.0
84.080129 21.0
87.019406 16.0
89.035935 184.0
91.054063 1402.0
92.055163 240.0
93.066462 50.0
94.063321 41.0
95.06072 53.0
98.983006 26.0
99.992376 30.0
102.044274 53.0
103.050204 131.0
104.049063 85.0
105.067802 160.0
106.062251 77.0
107.086721 22.0
108.07843 22.0
110.998407 27.0
111.996616 32.0
112.998255 56.0
114.029464 19.0
115.049594 121.0
115.054844 320.0
116.061593 55.0
117.058952 130.0
118.059511 43.0
119.056841 41.0
120.07984 27.0
121.073799 17.0
122.032888 13.0
122.067528 27.0
126.048935 64.0
126.900553 11.0
127.044054 31.0
127.056204 53.0
128.058613 132.0
129.067182 79.0
130.062952 88.0
130.98854 33.0
131.061431 41.0
131.074871 24.0
132.06597 45.0
133.098069 15.0
134.959177 16.0
136.999395 49.0
138.022955 7.0
139.038774 740.0
140.050173 34.0
141.061773 136.0
142.070002 70.0
143.070101 53.0
144.06077 17.0
145.072559 35.0
145.969518 30.0
147.967076 10.0
149.023556 14.0
150.046595 46.0
150.950343 48.0
152.052443 97.0
153.055483 17.0
153.065193 75.0
154.064302 55.0
155.078831 35.0
156.06979 31.0
156.07958 42.0
157.08845 68.0
158.091959 53.0
159.088778 20.0
160.106057 10.0
161.131577 18.0
163.038514 23.0
164.000613 22.0
164.057064 64.0
165.067433 135.0
165.081273 19.0
166.068282 44.0
167.037991 33.0
167.050651 48.0
167.073431 86.0
168.076541 34.0
168.089241 38.0
169.05971 44.0
170.095569 19.0
171.087188 17.0
173.111287 24.0
174.994334 16.0
175.122655 14.0
177.059593 23.0
177.070023 29.0
178.064752 63.0
178.076502 75.0
179.081912 36.0
181.03659 18.0
181.06034 44.0
182.096589 13.0
184.031737 20.0
185.037786 812.0
186.116096 35.0
188.048234 17.0
189.044993 15.0
189.067903 48.0
190.071403 28.0
191.000401 35.0
192.980789 67.0
193.961878 29.0
194.079219 20.0
194.961857 23.0
196.070028 22.0
197.046517 14.0
198.102686 22.0
201.035163 14.0
202.067123 31.0
202.078263 34.0
203.051462 32.0
204.087161 35.0
205.09463 56.0
205.154961 26.0
206.09192 17.0
207.033858 117.0
207.088829 22.0
208.035847 21.0
209.019016 19.0
209.028927 27.0
210.948194 17.0
211.053495 26.0
212.145065 9.0
215.080192 15.0
216.084151 30.0
217.05439 16.0
217.084711 14.0
221.107077 12.0
222.908274 25.0
222.912644 80.0
223.113076 36.0
223.943523 26.0
227.130113 23.0
230.07911 22.0
235.127486 11.0
237.123544 13.0
238.117194 18.0
239.088683 31.0
241.171442 8.0
242.985218 41.0
245.112448 12.0
249.165805 8.0
253.070041 30.0
256.099249 25.0
261.984953 23.0
265.019041 28.0
267.001879 52.0
268.979217 24.0
269.061158 19.0
271.075156 8.0
273.098245 22.0
273.159765 16.0
280.098979 14.0
281.054008 123.0
282.053407 21.0
283.136997 43.0
284.128556 15.0
299.072543 43.0
300.091593 56.0
301.088552 4643.0

