>compound 
>formula C14H16O5
>parentmass 287.0889946135301
>ionization [M + Na]+
>instrumentation Unknown (LCMS)
>source file:/Users/fanzhoukong/Documents/GitHub/Libgen/data/EAD_PFP/0_unknown_/spectrum.ms
>quality UNKNOWN

>ms2peaks
113.057122 11.0
115.054311 297.0
117.063679 64.0
118.056788 52.0
119.086167 133.0
121.067766 53.0
123.079844 26.0
126.044901 30.0
127.055451 88.0
128.06226 193.0
129.070839 39.0
130.068848 67.0
131.078537 91.0
132.056106 34.0
133.099475 49.0
149.112112 51.0
150.061021 66.0
151.05149 137.0
152.060879 146.0
153.066389 80.0
154.067918 91.0
155.075147 57.0
156.070966 35.0
156.083206 68.0
157.089615 51.0
158.075864 69.0
159.103493 97.0
159.112143 215.0
160.052673 47.0
161.058102 721.0
162.067921 103.0
163.0509 123.0
164.059429 32.0
165.067268 158.0
165.074818 196.0
166.070637 39.0
166.073157 101.0
167.071977 86.0
167.135307 45.0
168.068696 84.0
169.095155 68.0
170.096624 74.0
171.111283 90.0
173.130342 169.0
175.07309 147.0
176.072579 50.0
177.054038 122.0
177.061868 224.0
178.069617 228.0
179.084156 121.0
181.092905 45.0
182.092214 48.0
183.090303 41.0
185.103991 65.0
185.131981 50.0
187.00811 35.0
187.09519 35.0
188.045079 55.0
189.053938 237.0
190.062787 75.0
191.083826 87.0
191.132586 107.0
192.087215 51.0
193.083705 263.0
194.096414 23.0
195.058423 115.0
195.099463 105.0
196.095502 29.0
197.055571 33.0
197.131201 41.0
199.076699 42.0
199.148579 44.0
200.066189 41.0
201.094248 68.0
201.163718 65.0
203.049386 197.0
203.067526 99.0
204.078085 58.0
205.049044 57.0
205.082724 189.0
207.041583 85.0
207.100803 46.0
209.127331 72.0
209.154251 67.0
211.153779 68.0
213.054138 50.0
213.164258 30.0
216.008465 55.0
217.047764 38.0
219.077333 265.0
219.126642 69.0
221.082861 1875.0
223.169219 74.0
225.160977 26.0
227.143886 46.0
229.046534 237.0
230.066203 64.0
230.977942 175.0
233.083441 43.0
234.05212 57.0
236.099298 326.0
237.152627 70.0
241.193084 258.0
243.061922 46.0
246.00159 208.0
247.099869 34.0
249.073327 2038.0
251.178825 73.0
255.058022 57.0
257.04096 104.0
258.981109 259.0
259.214478 53.0
263.094635 31.0
264.009064 198.0
264.096614 147.0
265.022364 37.0
267.006772 33.0
269.19143 180.0
271.063928 52.0
272.066428 1211.0
274.004016 347.0
281.05727 56.0
282.051739 48.0
285.075477 113.0
286.048866 38.0
287.088635 5330.0

