>compound 
>formula C22H30O5
>parentmass 375.2166
>ionization [M + H]+
>instrumentation Unknown (LCMS)
>source file:/Users/fanzhoukong/Documents/GitHub/Libgen/data/NIST_MONA/0_unknown_/spectrum.ms
>quality UNKNOWN

>ms2peaks
55.0543 5.147478
67.0541 3.607212
79.0542 4.130944
81.0698 6.594217
83.0491 3.942906
91.0542 6.179846
93.07 11.54568
95.0855 5.593148
97.0649 3.650784
99.0438 2.466342
105.07 14.288678
107.0856 15.337615
109.1011 6.094174
117.07 3.881168
119.0857 10.750691
121.0649 44.467056
123.0804 3.207324
129.0701 2.95362
131.0854 9.826089
133.0649 2.8936
133.1012 9.747167
135.0805 64.093705
137.0962 2.509792
143.0852 6.860318
145.0647 7.259837
145.1012 13.010707
146.0726 3.730443
147.0805 13.998152
149.096 8.259802
157.1012 4.908503
158.0728 4.560658
159.0803 23.138123
161.0961 100.0
165.0695 2.467201
171.0805 6.118599
173.0961 24.760994
175.1115 8.172288
177.0912 6.575806
181.1009 2.53348
185.0962 63.231455
187.1118 36.024249
189.0912 6.853322
193.1013 2.7171
195.0806 4.857812
196.0892 3.255193
197.0965 4.148251
199.1117 12.474332
201.1277 4.158929
207.1169 2.80805
208.088 4.479281
209.0961 12.774186
210.1042 6.974835
211.1118 50.086839
213.1277 12.353187
222.1038 9.276336
223.1119 15.308403
224.1199 7.780501
225.1271 10.354363
227.1429 3.725779
235.1116 6.969925
236.1196 9.596074
237.1275 19.77541
238.135 10.878218
239.1428 7.606087
247.1113 2.737843
249.127 6.961701
250.1351 3.809365
251.1434 17.082981
253.1589 25.026727
261.1269 5.098137
263.1433 5.474213
265.1585 12.67759
267.1366 2.570671
273.1266 3.159087
277.1591 3.352158
279.1364 2.416018
279.1742 9.029996
280.1825 14.411172
288.1518 4.44565
303.1743 3.829249
309.1829 2.245286

