>compound 
>formula C30H30O13
>parentmass 616.20246202131
>ionization [M + H3N + H]+
>instrumentation Unknown (LCMS)
>source file:/Users/fanzhoukong/Documents/GitHub/Libgen/data/EAD_PFP/0_unknown_/spectrum.ms
>quality UNKNOWN

>ms2peaks
122.02639 22.0
123.043549 248.0
126.036756 46.0
127.041745 1285.0
128.056274 50.0
128.061814 413.0
129.069272 93.0
130.071731 46.0
131.05116 198.0
133.031198 1601.0
134.036437 515.0
135.046576 69.0
136.049095 22.0
137.061054 114.0
139.052311 118.0
140.05101 21.0
141.069579 264.0
142.076648 50.0
143.035747 132.0
144.056856 56.0
145.045015 44.0
145.052095 1133.0
147.049293 50.0
161.060027 114.0
163.049065 178.0
164.062594 71.0
165.066683 198.0
165.070453 538.0
166.072572 92.0
167.046051 37.0
167.07898 301.0
168.049079 70.0
169.053808 1076.0
170.073017 55.0
171.044056 154.0
171.083766 61.0
173.057564 322.0
174.065503 208.0
175.043952 63.0
175.071182 105.0
176.061561 264.0
177.061259 135.0
178.079458 251.0
179.069127 104.0
179.083547 134.0
180.081246 32.0
181.067215 330.0
182.077044 62.0
183.081713 36.0
184.057252 71.0
185.060701 168.0
186.05485 224.0
187.058358 2616.0
188.052487 25.0
189.058666 304.0
190.076985 73.0
191.068264 74.0
191.073674 152.0
192.066183 57.0
193.051722 953.0
194.069811 130.0
195.081 618.0
196.086599 29.0
197.098897 689.0
199.073245 187.0
200.054414 25.0
201.057443 154.0
202.071332 131.0
203.071021 1681.0
205.046949 158.0
206.072228 72.0
207.062016 209.0
208.107865 23.0
209.044464 71.0
209.058624 143.0
210.062653 39.0
211.060552 678.0
212.052251 19.0
213.06485 123.0
213.07486 253.0
215.074318 358.0
216.079706 57.0
217.054255 242.0
217.081675 54.0
218.080164 48.0
219.063563 59.0
220.092752 40.0
221.070451 75.0
223.074799 629.0
225.082327 75.0
226.069575 42.0
227.070804 223.0
229.075402 40.0
231.06503 852.0
232.111549 33.0
233.070698 90.0
235.058016 71.0
237.058303 105.0
239.074631 59.0
241.087329 1783.0
243.059587 30.0
243.080957 167.0
244.074746 46.0
244.085456 52.0
245.082814 2685.0
247.063622 103.0
249.0756 704.0
250.064499 28.0
251.072418 199.0
253.085036 64.0
255.065003 83.0
255.086893 45.0
257.080931 125.0
259.063839 1089.0
261.073327 144.0
262.087336 51.0
263.093775 4362.0
265.037462 36.0
267.08116 49.0
267.08437 194.0
269.079668 533.0
271.079176 25.0
273.078014 48.0
276.06965 62.0
277.071569 2334.0
278.076938 39.0
279.105407 45.0
281.107265 3414.0
282.054134 30.0
283.068483 67.0
284.068172 23.0
287.092708 233.0
291.095174 27.0
293.097552 43.0
294.07445 99.0
295.081589 1553.0
299.066325 33.0
301.075513 30.0
301.085703 32.0
303.065831 36.0
305.105508 7699.0
307.090216 26.0
309.089964 26.0
311.092742 26.0
312.087031 41.0
313.09506 94.0
319.095053 18.0
321.114121 34.0
323.116688 1618.0
325.097206 35.0
329.106632 32.0
331.08402 60.0
339.119531 70.0
342.296537 12.0
349.10854 64.0
353.102765 43.0
357.075291 12.0
357.140081 31.0
367.11883 241.0
367.147 12.0
377.101889 54.0
381.097825 76.0
385.12827 1857.0
395.115989 3313.0
396.125298 80.0
397.139797 27.0
405.448528 12.0
409.103954 19.0
411.109601 71.0
412.10929 45.0
413.126139 3625.0
414.134248 38.0
426.117245 12.0
427.104634 74.0
429.119402 46.0
429.714191 52.0
430.11434 25.0
430.13057 136.0
430.14479 55.0
431.132799 2083.0
431.142959 11926.0
432.830857 153.0
434.601696 30.0
438.170632 36.0
445.116644 165.0
455.115443 12.0
535.164975 24.0
563.158294 44.0
580.159915 27.0
581.163154 47.0
599.182724 40.0
616.204985 28.0
616.246305 73.0
616.358185 32.0

