>compound 
>formula C20H22O6
>parentmass 381.13085942648
>ionization [M + Na]+
>instrumentation Unknown (LCMS)
>source file:/Users/fanzhoukong/Documents/GitHub/Libgen/data/EAD_PFP/0_unknown_/spectrum.ms
>quality UNKNOWN

>ms2peaks
110.02642 11.0
114.04527 11.0
115.05705 106.0
117.07068 39.0
119.02054 34.0
120.06913 45.0
120.99836 157.0
122.97292 21.0
123.98419 25.0
124.98975 91.0
126.04665 54.0
127.04506 92.0
128.06071 194.0
129.06595 64.0
130.06616 38.0
131.06126 47.0
147.01488 59.0
149.021909 152.0
151.005229 224.0
152.060389 104.0
152.987139 292.0
153.016199 199.0
154.029719 33.0
154.062539 72.0
155.059999 35.0
156.063119 75.0
158.023629 287.0
159.009089 26.0
159.067149 33.0
160.067019 37.0
161.007859 20.0
163.007859 79.0
163.045359 71.0
164.058879 57.0
165.015149 199.0
165.073039 89.0
166.071359 56.0
166.999279 20.0
167.071459 95.0
168.078339 77.0
169.075509 45.0
170.088419 61.0
170.997999 397.0
172.089869 30.0
173.061509 35.0
175.009049 83.0
176.052539 54.0
177.026139 108.0
178.055999 126.0
179.002349 88.0
179.056089 81.0
180.082639 42.0
181.087079 71.0
182.091659 26.0
182.999619 76.0
183.034089 45.0
184.036069 48.0
185.042129 34.0
187.007539 304.0
188.051219 32.0
189.069529 59.0
190.077089 31.0
190.997949 80.0
192.002469 24.0
193.019159 1356.0
194.018069 74.0
194.999019 223.0
196.103149 35.0
197.005479 22.0
199.029109 56.0
200.043429 34.0
201.007539 244.0
202.077009 31.0
203.082299 40.0
204.073289 86.0
205.017589 26.0
205.084909 11.0
207.031129 114.0
209.006349 33.0
209.024749 64.0
211.027919 128.0
213.003489 84.0
213.009219 89.0
214.069959 20.0
216.082719 19.0
217.051499 20.0
219.030328 178.0
221.047288 127.0
223.022278 31.0
225.029558 96.0
226.050568 63.0
227.060608 16.0
229.032558 27.0
231.021988 51.0
233.072358 40.0
235.037148 121.0
237.043358 475.0
238.044388 44.0
239.026318 111.0
241.049448 34.0
245.047708 35.0
246.148468 24.0
249.007738 61.0
251.019838 27.0
253.038468 194.0
255.019798 133.0
257.066998 56.0
259.029338 22.0
259.119188 15.0
261.040268 55.0
263.057418 22.0
265.026498 44.0
267.014108 34.0
271.050338 103.0
275.072978 30.0
277.127208 45.0
279.046708 125.0
281.040138 12.0
281.054918 82.0
283.034098 21.0
283.053878 122.0
285.021858 36.0
289.039898 54.0
293.067607 65.0
295.049847 37.0
297.030317 33.0
297.033707 153.0
301.053627 137.0
305.078377 52.0
307.045817 67.0
307.071577 109.0
309.064377 30.0
313.036357 12.0
315.017097 12.0
315.043167 51.0
319.077797 30.0
321.063487 45.0
321.130197 35.0
325.058637 169.0
327.080517 20.0
333.064007 33.0
337.096937 480.0
338.095897 95.0
341.069107 28.0
349.046607 12.0
349.061227 265.0
353.196937 12.0
355.068097 182.0
363.102186 20.0
363.167526 74.0
381.172736 483.0

