>compound 
>formula C21H20O13
>parentmass 503.07961169901006
>ionization [M + Na]+
>instrumentation Unknown (LCMS)
>source file:/Users/fanzhoukong/Documents/GitHub/Libgen/data/EAD_PFP/0_unknown_/spectrum.ms
>quality UNKNOWN

>ms2peaks
50.015127 90.0
51.022626 273.0
52.026754 16.0
52.031704 37.0
53.039233 62.0
54.034112 8.0
54.936531 5.0
55.054951 182.0
56.047929 7.0
57.069758 14.0
57.934427 10.0
58.063497 5.0
59.930995 3.0
60.983653 54.0
62.016922 25.0
63.023101 159.0
64.02953 13.0
65.039988 908.0
66.042427 44.0
66.046407 53.0
67.053336 221.0
68.021825 5.0
68.049295 12.0
68.995623 105.0
70.064882 6.0
72.930759 6.0
73.045418 10.0
74.015637 14.0
75.021956 34.0
76.023965 18.0
76.030805 56.0
77.039504 872.0
78.041872 84.0
79.055071 270.0
80.04939 32.0
80.05727 25.0
81.068439 83.0
82.066417 11.0
83.084796 13.0
85.049114 9.0
86.014892 15.0
87.017191 7.0
88.02622 7.0
89.040129 158.0
90.042187 30.0
91.058266 869.0
92.057485 228.0
93.063104 40.0
93.069724 34.0
94.041882 9.0
94.062792 15.0
95.085001 47.0
95.95338 12.0
96.08201 5.0
97.948088 5.0
98.013058 7.0
99.994655 13.0
101.039654 8.0
102.043583 26.0
103.054451 96.0
104.04932 21.0
104.06131 8.0
105.068049 110.0
106.066518 57.0
107.079836 17.0
108.078635 5.0
109.100474 16.0
110.096293 6.0
110.999592 23.0
112.00505 8.0
113.003589 31.0
114.045268 8.0
115.053886 634.0
116.058505 60.0
117.062194 107.0
117.069614 80.0
118.054243 21.0
118.063823 46.0
119.062222 8.0
119.073982 12.0
119.085742 52.0
120.08094 25.0
121.089979 6.0
121.102909 16.0
122.035048 17.0
122.096738 12.0
122.958807 6.0
123.080507 10.0
124.110765 5.0
125.025904 3.0
126.046673 22.0
127.051712 28.0
127.055022 75.0
128.06295 307.0
129.069299 76.0
130.072878 55.0
130.989527 20.0
131.063547 13.0
131.071387 25.0
131.084847 11.0
132.016286 10.0
132.081575 11.0
133.069664 13.0
133.097914 8.0
135.116072 7.0
137.061109 63.0
139.055847 27.0
140.049926 13.0
141.067334 60.0
142.067393 35.0
142.076733 23.0
143.067462 5.0
143.073322 19.0
144.079271 49.0
145.079319 11.0
145.972738 6.0
146.100568 5.0
147.089787 8.0
147.096907 13.0
147.967896 15.0
148.113316 9.0
149.026744 7.0
150.047393 20.0
150.102593 5.0
151.052262 39.0
152.062881 135.0
153.068379 89.0
154.066258 49.0
155.051537 5.0
155.072277 52.0
155.084477 25.0
156.065646 14.0
156.082766 39.0
157.063405 11.0
157.080605 7.0
157.087974 16.0
157.110064 5.0
158.082823 18.0
158.096373 18.0
159.067242 21.0
159.080832 24.0
159.088262 15.0
160.075771 10.0
160.086941 9.0
160.105531 5.0
161.06389 6.0
161.09497 25.0
162.096188 10.0
163.054207 16.0
164.050216 13.0
164.061486 27.0
165.068105 117.0
166.063893 8.0
166.067683 44.0
167.074092 54.0
167.082952 18.0
168.055581 6.0
168.078431 48.0
169.06798 23.0
169.07689 12.0
169.09092 8.0
170.097458 16.0
170.105138 8.0
171.060887 6.0
171.114707 7.0
172.080996 5.0
172.107986 11.0
173.096405 15.0
173.108005 6.0
173.132495 11.0
174.103173 11.0
175.076552 35.0
176.061751 13.0
177.06146 8.0
177.07188 10.0
178.078359 75.0
179.073267 12.0
179.087687 25.0
180.078836 36.0
181.076665 6.0
181.088525 11.0
181.100395 18.0
182.086524 9.0
182.094444 12.0
183.089872 17.0
184.085371 8.0
184.111971 13.0
185.04094 16.0
186.125919 8.0
187.073327 12.0
187.097457 19.0
187.147027 10.0
188.059426 10.0
189.071035 55.0
189.128965 8.0
190.071834 16.0
190.119124 18.0
190.133984 22.0
191.000813 14.0
191.075282 36.0
192.084081 11.0
192.98121 47.0
193.09009 11.0
194.070069 5.0
194.085089 9.0
194.982758 8.0
195.097687 16.0
196.078626 15.0
196.110166 9.0
197.056515 6.0
197.117035 6.0
198.130614 6.0
199.041733 6.0
199.105313 7.0
200.061631 7.0
201.06327 12.0
202.077189 61.0
203.085278 21.0
203.115988 5.0
203.142528 39.0
204.076266 7.0
204.147646 25.0
205.118775 14.0
205.162265 13.0
206.152704 8.0
207.032723 90.0
208.030471 10.0
209.00937 6.0
209.11702 6.0
210.986858 5.0
212.999405 12.0
214.131804 10.0
215.073223 5.0
215.087583 24.0
216.075742 6.0
216.087262 8.0
217.08779 9.0
218.092089 5.0
219.078408 14.0
219.139298 7.0
221.118885 8.0
222.103254 6.0
223.123453 7.0
224.138672 5.0
225.05625 6.0
226.168649 5.0
227.051978 10.0
227.084448 6.0
227.183378 5.0
230.095544 5.0
231.139863 63.0
232.141802 87.0
233.09802 10.0
234.974338 11.0
237.090386 10.0
239.162913 6.0
242.986718 18.0
245.103216 6.0
247.074863 11.0
247.121043 8.0
248.079852 6.0
249.148721 22.0
250.116089 7.0
250.153259 37.0
251.103938 17.0
252.096867 5.0
253.141606 6.0
254.110444 8.0
255.109293 10.0
257.108131 6.0
259.070618 9.0
260.077577 7.0
261.091246 5.0
261.983185 8.0
263.102233 6.0
265.018851 33.0
265.093801 6.0
266.16033 6.0
266.17312 15.0
267.000049 13.0
267.153738 8.0
267.177758 24.0
268.168227 8.0
268.974166 5.0
272.079022 3.0
277.088446 7.0
279.101084 20.0
281.052001 97.0
282.04978 18.0
283.047639 16.0
283.078949 3.0
284.190947 6.0
285.185976 6.0
291.100789 21.0
293.103226 6.0
295.095694 6.0
310.050685 5.0
311.127984 94.0
313.293391 3.0
317.032427 3.0
319.041494 6.0
323.112129 6.0
323.131509 38.0
327.091624 6.0
337.124412 6.0
340.017478 25.0
341.138357 75.0
357.100217 7.0
365.196467 7.0
375.111825 6.0
390.200006 5.0
408.203944 8.0
415.036915 6.0
417.121053 13.0
425.214913 11.0
426.219462 62.0
443.137961 6.0
443.25139 15.0
449.198713 5.0
461.142758 12.0
467.233931 7.0
485.248559 10.0
501.061439 9.0
502.070648 26.0
503.083076 890.0
503.287416 6.0

