>compound 
>formula C35H56O9
>parentmass 638.42625438101
>ionization [M + H3N + H]+
>instrumentation Unknown (LCMS)
>source file:/Users/fanzhoukong/Documents/GitHub/Libgen/data/EAD_PFP/0_unknown_/spectrum.ms
>quality UNKNOWN

>ms2peaks
126.050578 83.0
128.05803 601.0
128.06247 988.0
129.068801 350.0
130.064562 83.0
130.076862 136.0
131.082103 72.0
131.086583 311.0
132.085583 48.0
133.103054 274.0
135.113296 116.0
137.136298 42.0
139.0588 54.0
141.063321 51.0
141.069131 579.0
142.079702 278.0
143.084513 328.0
144.083464 73.0
145.100015 328.0
147.114197 73.0
161.123009 65.0
163.14373 65.0
163.14749 182.0
164.063441 103.0
165.072572 1078.0
166.070903 163.0
167.083644 491.0
168.079145 138.0
168.093115 171.0
169.104346 552.0
170.105836 169.0
171.120537 406.0
172.118958 109.0
173.134499 949.0
175.136891 106.0
175.148571 191.0
176.058552 53.0
177.099973 71.0
177.162543 138.0
178.081693 373.0
179.084464 262.0
180.090065 158.0
181.101106 347.0
182.105737 109.0
183.115778 554.0
184.120669 73.0
185.13362 275.0
186.11327 62.0
187.145081 359.0
188.154222 35.0
189.070413 48.0
189.120263 255.0
189.159333 282.0
190.077974 87.0
191.080065 52.0
191.090905 216.0
192.088886 159.0
193.101726 162.0
193.971197 41.0
194.111767 99.0
195.109368 216.0
195.120328 263.0
196.119149 80.0
197.13427 431.0
198.142381 54.0
199.132322 170.0
199.150292 294.0
200.148283 39.0
201.165453 429.0
202.079334 135.0
203.086015 68.0
203.119525 78.0
203.144655 119.0
203.180975 56.0
204.089616 102.0
205.104097 158.0
205.158817 106.0
206.111258 104.0
207.032059 69.0
207.103959 156.0
208.034049 80.0
208.128729 86.0
209.13193 336.0
210.140401 74.0
211.145592 271.0
212.153193 32.0
213.153174 115.0
213.166044 205.0
215.153016 151.0
215.180306 79.0
217.104427 40.0
217.141947 50.0
219.115419 38.0
220.09096 56.0
221.132771 162.0
222.141982 36.0
223.150572 238.0
224.157043 57.0
225.164314 301.0
226.172365 47.0
227.182666 256.0
228.097577 41.0
229.162578 158.0
229.178888 95.0
231.139159 61.0
231.176399 131.0
233.133201 101.0
233.152641 52.0
234.160432 62.0
235.144833 85.0
235.155343 125.0
237.134915 52.0
237.168125 208.0
238.173916 37.0
239.163696 98.0
239.178846 263.0
240.182847 51.0
241.172218 79.0
241.198058 143.0
243.17383 656.0
245.142322 30.0
245.160742 70.0
245.180682 181.0
246.140312 42.0
247.169583 358.0
249.152595 90.0
249.178885 103.0
250.171096 46.0
251.176147 134.0
252.189438 86.0
253.157999 41.0
253.184489 180.0
253.192289 140.0
254.181519 50.0
255.19458 266.0
255.20711 154.0
257.148192 120.0
257.173342 221.0
258.198643 37.0
259.158174 65.0
259.169194 107.0
261.177526 106.0
263.185647 144.0
265.177559 119.0
265.198279 162.0
266.20109 32.0
267.208991 147.0
268.220382 46.0
269.177442 74.0
269.199932 75.0
271.169234 578.0
273.184586 703.0
275.178148 66.0
275.196028 105.0
277.191979 110.0
279.205011 127.0
281.052823 82.0
281.218713 81.0
283.172085 76.0
283.188565 119.0
283.213285 45.0
284.219846 48.0
285.188446 202.0
287.195368 152.0
289.17935 1610.0
291.213592 176.0
292.215822 49.0
293.224793 352.0
295.207585 157.0
295.217685 148.0
297.190257 87.0
297.208837 100.0
299.199929 73.0
300.209019 31.0
301.21809 43.0
303.202072 50.0
305.228494 116.0
307.225605 96.0
307.244495 108.0
309.210317 115.0
311.201369 141.0
311.239399 336.0
313.221391 228.0
315.202722 43.0
315.234002 53.0
317.209464 84.0
319.212096 54.0
319.243586 167.0
321.228028 143.0
321.261408 139.0
323.234469 87.0
323.273219 49.0
325.227751 512.0
327.232453 86.0
329.227295 87.0
331.224646 91.0
333.251318 75.0
335.25184 98.0
337.236792 75.0
337.260172 142.0
338.261182 34.0
339.225783 151.0
339.236613 497.0
341.249585 76.0
345.256978 103.0
347.24205 51.0
349.254812 88.0
351.232994 133.0
351.260524 180.0
353.248045 215.0
353.260915 393.0
355.267027 78.0
357.245449 119.0
359.251681 38.0
361.257902 76.0
361.287692 81.0
363.273474 77.0
365.244086 334.0
367.253848 130.0
369.246499 76.0
371.255901 192.0
375.300525 50.0
377.284406 68.0
379.269728 312.0
381.2813 47.0
383.256001 64.0
389.320857 387.0
391.271668 313.0
392.266359 35.0
393.28564 175.0
395.297002 41.0
396.267523 40.0
397.284184 143.0
398.276704 48.0
399.303745 105.0
401.279367 55.0
405.276831 51.0
407.334392 1450.0
408.301773 47.0
409.278214 292.0
414.130178 12.0
415.299209 75.0
416.28801 72.0
417.316001 1431.0
419.283473 25.0
419.301533 213.0
421.309894 54.0
423.317006 95.0
425.347038 397.0
426.321439 30.0
427.28476 192.0
432.305114 38.0
433.313935 390.0
433.879005 66.0
434.309636 314.0
435.337137 9835.0
437.330238 81.0
443.357434 45.0
451.321861 722.0
452.335951 653.0
453.336572 3549.0
453.357442 6239.0
454.352923 88.0
468.319555 27.0
469.327056 120.0
470.342047 85.0
471.351748 1144.0
489.364644 32.0
531.34643 63.0
549.362866 138.0
567.359951 69.0
567.366971 115.0
584.362896 64.0
584.374736 115.0
585.374497 313.0
602.369142 63.0
603.391413 184.0
620.355787 77.0
638.280303 69.0
638.359523 75.0
638.399133 325.0
638.436243 88.0

