>compound 
>formula C35H56O9
>parentmass 643.3816543810101
>ionization [M + Na]+
>instrumentation Unknown (LCMS)
>source file:/Users/fanzhoukong/Documents/GitHub/Libgen/data/EAD_PFP/0_unknown_/spectrum.ms
>quality UNKNOWN

>ms2peaks
126.044978 79.0
127.053319 178.0
128.06013 530.0
129.065371 102.0
130.071162 96.0
131.078633 44.0
133.062254 22.0
135.115446 28.0
139.05175 99.0
141.067851 213.0
142.064402 107.0
144.079804 39.0
147.073686 46.0
164.063311 56.0
165.069912 358.0
166.075823 87.0
167.077184 106.0
168.071385 31.0
169.095296 175.0
170.103136 101.0
172.075128 36.0
173.095679 83.0
174.13088 65.0
176.061032 138.0
178.076303 227.0
179.034514 138.0
180.082025 92.0
181.099636 31.0
183.097078 59.0
185.109469 84.0
189.068913 175.0
190.072404 120.0
191.005435 188.0
191.999125 115.0
194.077457 133.0
197.10661 64.0
202.077754 232.0
203.084455 197.0
205.119357 162.0
207.031899 89.0
210.123171 31.0
212.108793 39.0
215.088165 71.0
216.079186 68.0
217.102807 55.0
219.093479 64.0
222.103842 61.0
226.094105 44.0
229.095648 36.0
231.101739 46.0
235.092053 88.0
239.145306 40.0
242.98121 23.0
245.228032 26.0
248.983885 36.0
250.079476 45.0
251.166627 41.0
255.06606 80.0
263.101207 28.0
265.017829 53.0
267.107891 69.0
268.149552 23.0
271.165784 28.0
277.211319 27.0
277.217849 23.0
281.049313 178.0
282.055294 79.0
283.163595 88.0
285.070766 74.0
299.072608 103.0
299.089548 82.0
301.19401 85.0
307.189315 52.0
313.186451 34.0
315.085932 67.0
319.220576 73.0
319.232816 135.0
325.179781 67.0
331.074646 49.0
334.154729 23.0
338.140182 47.0
349.228872 35.0
357.208129 30.0
371.206521 61.0
375.173044 24.0
381.25994 22.0
384.985553 24.0
399.213355 111.0
402.225468 24.0
408.178693 24.0
415.157149 53.0
418.172592 24.0
437.155738 24.0
439.24741 22.0
445.159615 39.0
454.231433 24.0
457.207296 26.0
460.079368 24.0
461.273649 34.0
463.177581 89.0
466.140233 24.0
475.266391 24.0
485.18855 35.0
486.207571 24.0
491.238365 24.0
495.769249 22.0
519.27348 69.0
523.187363 86.0
525.230645 22.0
539.219667 24.0
547.169564 24.0
552.155718 22.0
565.233419 74.0
572.368626 24.0
581.210003 24.0
582.370154 87.0
583.240455 143.0
585.364547 24.0
587.361859 24.0
590.414231 73.0
599.299859 24.0
602.178711 48.0
607.375126 81.0
608.377447 47.0
611.120609 24.0
623.34779 24.0
625.428482 88.0
634.242149 22.0
642.250766 85.0
643.271577 804.0
643.333647 1465.0

