>compound 
>formula C16H14O5
>parentmass 287.09140454907003
>ionization [M + H]+
>instrumentation Unknown (LCMS)
>source file:/Users/fanzhoukong/Documents/GitHub/Libgen/data/EAD_PFP/0_unknown_/spectrum.ms
>quality UNKNOWN

>ms2peaks
50.014332 612.0
51.023243 774.0
52.030914 132.0
53.038445 279.0
53.932546 18.0
54.039076 48.0
55.038157 633.0
55.051967 658.0
56.047858 58.0
56.056658 54.0
57.046759 396.0
57.060079 476.0
58.06568 111.0
59.047681 239.0
60.028822 21.0
61.026453 189.0
62.014574 95.0
63.023065 514.0
64.030287 62.0
65.039958 1493.0
66.042399 140.0
67.05412 1489.0
68.025841 59.0
68.040391 74.0
68.993982 31.0
69.070492 578.0
70.073073 55.0
71.049014 488.0
71.086174 36.0
72.049995 29.0
73.063846 54.0
74.013117 44.0
75.010088 32.0
75.027058 51.0
76.029959 181.0
77.039521 1484.0
78.043622 439.0
79.053353 1525.0
80.051164 170.0
81.071115 1421.0
82.072666 69.0
83.057157 56.0
83.076797 438.0
83.083047 526.0
85.063609 609.0
87.045571 73.0
87.059281 37.0
89.040183 618.0
90.045034 258.0
91.057396 2444.0
92.057557 235.0
93.070738 1629.0
94.060959 93.0
94.068559 91.0
95.08699 1244.0
96.085931 47.0
97.066922 376.0
97.080442 299.0
98.098503 36.0
99.044844 133.0
99.052644 205.0
99.078964 135.0
100.079985 19.0
101.049596 112.0
101.062396 74.0
102.048627 188.0
103.054548 678.0
104.061419 101.0
105.069161 444.0
106.051492 51.0
106.070662 128.0
107.082993 300.0
107.085013 638.0
108.086894 40.0
109.102635 1521.0
110.104626 63.0
111.043057 651.0
113.059959 145.0
113.069329 112.0
114.04539 30.0
114.09143 23.0
115.051911 169.0
115.056121 1276.0
116.057582 68.0
116.062862 134.0
117.069753 485.0
118.041604 311.0
119.059156 225.0
119.062366 242.0
119.082676 242.0
120.054247 26.0
120.068197 72.0
120.088597 66.0
121.069638 162.0
121.084728 625.0
121.103058 219.0
122.104469 43.0
123.07739 24.0
123.09587 256.0
123.11326 185.0
125.042492 24.0
125.058922 224.0
125.074262 151.0
126.043523 65.0
127.055174 267.0
127.061804 219.0
128.062005 845.0
129.052776 41.0
129.068356 466.0
130.059637 36.0
130.071927 99.0
131.068188 89.0
131.087248 492.0
132.08512 38.0
133.069841 823.0
133.089051 61.0
134.077482 97.0
135.083233 148.0
135.100313 211.0
135.116253 684.0
136.111034 35.0
137.055555 59.0
137.085375 254.0
139.064117 64.0
139.075667 254.0
140.058218 38.0
141.070999 458.0
142.06524 40.0
142.07574 150.0
143.078191 94.0
143.084051 254.0
144.078282 48.0
144.088872 52.0
145.066533 45.0
145.100744 419.0
145.972924 38.0
146.101955 40.0
147.046016 602.0
148.112317 20.0
149.126238 149.0
149.132218 276.0
151.05125 74.0
152.064291 117.0
153.017702 2466.0
154.067693 27.0
154.078643 96.0
155.082254 113.0
155.087114 178.0
156.064645 24.0
156.092775 23.0
156.131945 45.0
157.083256 129.0
157.096776 58.0
158.095357 41.0
159.103299 277.0
160.12434 30.0
161.061631 2156.0
163.080713 73.0
163.095713 172.0
163.113253 145.0
163.123263 128.0
163.137003 139.0
164.150814 30.0
165.072095 305.0
166.071706 63.0
166.096956 46.0
167.036337 1691.0
167.141437 26.0
168.064698 37.0
168.078678 80.0
168.098998 61.0
169.083499 36.0
169.098789 232.0
170.06066 27.0
170.08748 61.0
170.11559 47.0
171.086751 274.0
171.112391 42.0
172.114643 33.0
172.130073 40.0
173.060574 19.0
173.130164 266.0
174.112465 30.0
175.015876 55.0
175.032746 88.0
175.078086 112.0
175.122176 105.0
175.148096 83.0
176.059397 38.0
176.149087 43.0
177.119058 373.0
177.132098 384.0
178.078599 123.0
179.03156 206.0
179.07089 46.0
180.042271 23.0
180.089581 60.0
181.109862 209.0
181.156022 301.0
182.072223 26.0
182.188553 37.0
183.102074 81.0
183.115334 124.0
184.082985 54.0
185.099826 117.0
185.119836 128.0
185.129156 172.0
186.100778 25.0
187.108439 145.0
187.129879 181.0
188.1121 26.0
189.071301 97.0
189.099591 63.0
189.130561 58.0
190.077492 39.0
190.147752 36.0
190.174752 22.0
191.005143 56.0
191.105343 72.0
191.145983 156.0
191.174403 143.0
191.185253 72.0
192.179414 35.0
193.027755 56.0
193.060405 51.0
193.098545 37.0
194.097646 31.0
195.111637 140.0
195.137637 416.0
196.054198 21.0
196.087128 39.0
196.104968 44.0
196.140628 32.0
197.062309 26.0
197.098059 69.0
197.110429 62.0
197.131059 74.0
198.08951 28.0
198.13225 41.0
199.112491 141.0
199.122181 82.0
199.151202 50.0
200.042502 35.0
200.085453 24.0
201.130244 117.0
201.146924 140.0
201.162194 146.0
202.067725 35.0
203.075786 146.0
203.096716 94.0
205.110658 137.0
205.127488 246.0
205.189218 44.0
206.189539 24.0
206.197999 80.0
207.033 67.0
207.05133 58.0
207.119 22.0
208.047711 39.0
209.138552 58.0
209.158392 356.0
209.171142 144.0
210.132833 24.0
211.073964 36.0
211.116654 82.0
211.130894 46.0
211.155094 76.0
212.122765 22.0
213.124107 194.0
213.162707 55.0
215.049099 20.0
215.146779 30.0
215.176969 63.0
216.11347 49.0
216.1826 33.0
217.090971 49.0
217.114071 57.0
219.117853 64.0
219.154093 121.0
219.171503 154.0
222.126926 18.0
223.135467 628.0
225.055069 32.0
225.134449 30.0
226.13359 60.0
226.217561 57.0
227.140862 116.0
227.158572 218.0
228.067513 21.0
229.148764 85.0
229.156184 110.0
231.108916 32.0
231.180396 20.0
233.150688 81.0
233.195568 61.0
234.192949 41.0
237.152562 146.0
237.176702 299.0
239.076874 31.0
240.076115 23.0
241.167177 299.0
242.056448 44.0
243.061879 47.0
243.133659 40.0
245.078991 44.0
245.085121 167.0
245.148001 54.0
248.988265 29.0
251.158597 45.0
251.184997 150.0
251.206737 205.0
252.204528 187.0
253.046879 19.0
254.05455 27.0
255.139352 48.0
255.192552 46.0
256.069683 21.0
257.083324 30.0
257.150884 36.0
258.087995 23.0
259.167156 111.0
259.186076 78.0
264.176221 33.0
265.023972 35.0
266.995564 20.0
268.072345 53.0
269.133567 119.0
269.157677 364.0
269.178577 279.0
269.201067 96.0
270.169548 30.0
270.230738 23.0
271.091359 31.0
271.133289 32.0
271.160729 39.0
271.173609 47.0
271.184929 54.0
281.055639 100.0
282.05341 31.0
283.056252 18.0
285.072214 540.0
286.082035 20.0
287.091986 2965.0
287.213176 24.0

