>compound 
>formula C21H28O9
>parentmass 447.1625534785701
>ionization [M + Na]+
>instrumentation Unknown (LCMS)
>source file:/Users/fanzhoukong/Documents/GitHub/Libgen/data/EAD_PFP/0_unknown_/spectrum.ms
>quality UNKNOWN

>ms2peaks
113.038402 11.0
115.054341 661.0
116.05579 114.0
116.06529 67.0
117.072189 250.0
119.062677 146.0
119.085127 377.0
121.066716 310.0
123.041834 68.0
123.087484 29.0
125.058132 55.0
126.043831 29.0
127.053271 134.0
128.06229 416.0
129.069749 87.0
131.088677 26.0
141.065459 175.0
142.078368 331.0
143.089017 794.0
144.091496 68.0
145.067985 338.0
145.083325 579.0
145.099845 367.0
146.032374 98.0
146.070254 71.0
147.077174 246.0
147.098564 157.0
147.116384 74.0
148.080393 35.0
148.112583 28.0
149.023642 133.0
149.035602 194.0
149.064302 91.0
150.043061 63.0
150.053871 48.0
151.04189 89.0
151.0491 143.0
151.06597 93.0
152.065769 433.0
153.066439 581.0
154.074038 465.0
155.087387 574.0
156.093026 1069.0
157.099485 1970.0
158.100554 154.0
159.072653 218.0
159.086233 573.0
159.094893 786.0
159.117133 365.0
160.088653 103.0
161.073072 202.0
161.094182 209.0
162.029301 49.0
162.102901 46.0
163.04093 126.0
163.04967 141.0
163.0647 66.0
164.050669 73.0
165.068568 953.0
166.076987 562.0
167.087227 317.0
168.057326 47.0
168.090346 94.0
169.102845 1008.0
170.071104 117.0
170.076214 132.0
171.079303 151.0
171.101093 528.0
171.113893 1951.0
173.095592 1859.0
174.066141 29.0
174.098481 43.0
175.09646 250.0
175.11073 460.0
176.059609 38.0
177.051498 58.0
177.060618 79.0
177.076258 66.0
177.095808 65.0
178.073587 61.0
179.073726 33.0
179.082906 162.0
180.093756 24.0
181.094265 185.0
181.098225 858.0
182.072444 207.0
183.079753 528.0
184.091162 281.0
185.098711 1754.0
187.09256 315.0
187.10195 992.0
188.073339 29.0
188.085439 109.0
189.093048 131.0
189.109228 378.0
189.121338 363.0
190.065547 63.0
190.999926 57.0
191.077106 49.0
192.076395 22.0
192.985765 30.0
193.047005 31.0
193.055155 46.0
193.091915 60.0
195.063943 43.0
195.073523 166.0
196.085952 41.0
197.095501 1052.0
198.08006 92.0
198.10487 128.0
199.114069 2056.0
200.088419 53.0
201.088748 414.0
202.065117 37.0
202.073457 50.0
202.099917 52.0
203.106676 1066.0
204.099105 58.0
204.117315 33.0
205.046284 51.0
205.084174 73.0
206.057524 40.0
207.030363 48.0
207.035993 78.0
207.050093 126.0
207.067013 73.0
208.070492 41.0
209.094821 459.0
210.1046 28.0
211.085509 95.0
212.080138 114.0
213.087078 128.0
214.105017 48.0
215.108166 2712.0
216.109305 50.0
216.119375 80.0
217.121434 835.0
218.164873 23.0
219.083193 28.0
220.089192 27.0
221.042131 41.0
221.082921 39.0
223.058059 223.0
224.077528 27.0
225.083147 209.0
226.099857 73.0
227.105556 1719.0
229.067354 40.0
229.099954 55.0
230.095993 33.0
231.104582 54.0
232.076581 33.0
233.110441 73.0
233.122401 185.0
235.124959 24.0
237.089327 734.0
238.108566 28.0
239.107286 310.0
240.111145 26.0
241.120134 955.0
243.098652 68.0
244.067981 28.0
244.296051 65.0
244.319011 54.0
245.12204 15125.0
246.09231 71.0
246.459749 21.0
247.101449 60.0
247.195399 31.0
247.543618 80.0
248.362718 21.0
249.090407 149.0
251.107475 48.0
253.078144 46.0
253.092174 62.0
254.090563 525.0
255.100312 188.0
257.11798 166.0
259.104159 78.0
259.129399 48.0
261.120147 50.0
263.121705 65.0
263.126465 255.0
265.083063 34.0
266.237453 69.0
267.104522 8175.0
268.021081 24.0
269.10955 79.0
269.12078 218.0
271.096248 22.0
271.107538 57.0
271.138208 80.0
272.114978 47.0
273.088677 15.0
275.132225 80.0
276.095024 12.0
277.149183 45.0
279.091662 24.0
280.112171 33.0
281.0442 22.0
281.11482 35.0
282.022199 19.0
283.049698 28.0
283.113968 86.0
283.125498 54.0
284.097207 36.0
285.113597 495.0
286.118536 59.0
287.126875 89.0
289.140603 41.0
293.35859 12.0
296.113377 65.0
297.113866 406.0
298.112635 21.0
299.123255 758.0
300.138974 45.0
301.103723 69.0
301.125823 73.0
303.124841 61.0
305.14419 451.0
309.115106 41.0
311.114524 44.0
311.130084 69.0
313.106523 121.0
313.141193 52.0
314.119642 34.0
315.123981 685.0
317.135729 361.0
325.103613 78.0
326.003272 101.0
326.043952 54.0
326.132422 45.0
327.127421 16375.0
328.13102 48.0
328.55704 59.0
329.130829 134.0
329.141509 1838.0
329.705139 32.0
330.294158 26.0
331.081548 37.0
331.117217 31.0
333.129216 17.0
333.145296 31.0
335.172424 12.0
341.129629 30.0
341.285269 12.0
343.021197 29.0
343.104667 65.0
343.122797 150.0
345.136346 3919.0
347.137504 12.0
353.059739 12.0
357.131995 293.0
359.130444 45.0
359.160164 137.0
361.132632 371.0
367.185737 12.0
369.136775 34.0
370.534664 12.0
371.153414 92.0
373.128232 196.0
375.12347 46.0
375.14245 212.0
382.653494 66.0
385.121782 102.0
385.135242 111.0
385.575641 29.0
385.860371 83.0
385.929641 49.0
386.135571 106.0
387.15459 18839.0
388.225109 35.0
388.603499 50.0
388.690409 102.0
389.117358 33.0
390.182847 15.0
391.910806 28.0
392.982065 12.0
395.818553 46.0
396.044652 19.0
401.186558 26.0
403.137326 482.0
403.157016 377.0
405.063265 30.0
405.159885 259.0
406.416904 24.0
411.357229 12.0
415.574146 12.0
417.153284 42.0
417.165304 12.0
429.157234 26.0
431.176833 33.0
433.135901 34.0
433.156291 113.0
441.784334 12.0
445.130401 46.0
445.151061 88.0
445.66793 149.0
445.73205 101.0
446.737759 29.0
447.164389 27511.0

