>compound 
>formula C15H12O2
>parentmass 223.07645315913
>ionization [M - H]-
>instrumentation Unknown (LCMS)
>source file:/Users/fanzhoukong/Documents/Fiehnlab/library_generator/data/UVPD/0_unknown_/spectrum.ms
>quality UNKNOWN

>ms2peaks
49.007813 25421.0
59.012898 16002.0
63.02304 10795.0
65.002731 57033.0
65.038751 273421.0
75.023437 26728.0
77.038878 11507.0
89.039055 39672.0
91.017956 180253.0
92.025616 439431.0
93.033697 5329913.0
101.038881 1561645.0
103.054092 55125.0
115.054869 64982.0
117.03297 1580320.0
119.048571 146169.0
120.020892 7951.0
121.028032 248075.0
125.038845 9775.0
130.041627 20943.0
132.020588 34604.0
141.070943 29530.0
143.048625 12309.0
145.028836 464346.0
146.035336 118988.0
147.044687 638670.0
163.039046 69400.0
165.069277 221608.0
167.084358 29522.0
169.065739 12058.0
176.063213 81718.0
177.070753 136470.0
179.086204 10756.0
180.057565 76161.0
193.064122 1419535.0
194.073173 15682.0
195.081383 3716088.0
204.055868 362990.0
205.064129 195297.0
206.073529 107761.0
208.05037 18289.0
221.059788 428995.0
222.068878 128966.0
223.074179 862469.0

