>compound 
>formula C28H37NO8
>parentmass 516.2591981535
>ionization [M + H]+
>instrumentation Unknown (LCMS)
>source file:/Users/fanzhoukong/Documents/GitHub/Libgen/data/EAD_PFP/0_unknown_/spectrum.ms
>quality UNKNOWN

>ms2peaks
126.050983 108.0
127.054933 374.0
128.060644 2079.0
129.069214 1048.0
130.070554 141.0
131.053364 240.0
131.058964 227.0
131.082524 271.0
132.056715 84.0
132.067975 84.0
133.065045 205.0
133.086535 267.0
133.105745 122.0
134.036395 44.0
135.048825 767.0
135.056795 556.0
136.038785 62.0
136.054785 84.0
137.059896 784.0
138.044516 39.0
138.068686 114.0
139.046526 115.0
139.059236 137.0
141.069566 794.0
142.078987 471.0
143.082617 204.0
145.062717 51.0
145.083957 59.0
152.062809 59.0
157.09649 105.0
158.07537 91.0
159.07954 388.0
159.11784 150.0
160.07447 174.0
161.060101 859.0
161.078741 488.0
162.067441 67.0
163.066661 532.0
164.046361 50.0
164.060171 255.0
165.070552 2677.0
166.076452 667.0
167.086682 866.0
168.056782 91.0
168.075832 286.0
168.091072 236.0
169.073002 478.0
169.089562 470.0
170.075673 195.0
171.083883 917.0
172.086073 627.0
173.058973 2180.0
174.066923 844.0
175.080374 743.0
175.089454 1314.0
176.068184 356.0
177.054864 996.0
178.078284 999.0
179.082374 853.0
180.077445 95.0
181.062095 561.0
181.076595 1317.0
182.078515 304.0
183.080535 389.0
183.120315 111.0
184.083986 246.0
185.094176 1461.0
186.067026 68.0
186.095106 300.0
186.107126 326.0
187.085326 258.0
187.090676 1471.0
187.100066 1661.0
188.082216 541.0
189.072307 1817.0
190.075837 162.0
190.094727 127.0
191.077927 483.0
191.092817 513.0
192.090807 230.0
193.094117 331.0
194.076828 167.0
195.082568 427.0
195.094878 943.0
196.088168 475.0
197.071598 420.0
197.096348 392.0
198.082288 235.0
199.076219 357.0
199.088649 788.0
199.098329 838.0
199.107999 430.0
200.065709 140.0
200.076799 193.0
201.088209 717.0
201.100719 686.0
202.093829 510.0
203.10755 5923.0
204.0846 463.0
205.06961 85.0
205.09204 416.0
205.10468 890.0
205.12152 276.0
206.07948 86.0
206.10762 124.0
207.08341 305.0
207.10454 151.0
207.11019 255.0
208.105291 154.0
209.095691 368.0
210.108321 273.0
211.104911 650.0
212.086731 587.0
212.126681 63.0
213.097992 1031.0
213.109442 606.0
214.084432 56.0
214.098762 218.0
215.076022 922.0
216.078522 213.0
217.087712 499.0
217.097832 876.0
218.093463 104.0
219.102973 1220.0
220.097383 54.0
220.135163 79.0
221.110063 296.0
222.106104 236.0
223.110224 568.0
224.085804 177.0
224.109254 194.0
224.126864 147.0
225.100274 672.0
226.096384 304.0
227.085855 350.0
227.106525 1816.0
228.110035 244.0
229.106845 1724.0
230.095455 1017.0
231.104045 5637.0
232.099926 175.0
233.105426 475.0
233.120366 1049.0
234.113086 85.0
234.138576 135.0
235.119926 227.0
236.119897 146.0
237.118967 232.0
238.103527 157.0
239.105267 777.0
239.121927 1067.0
240.104547 183.0
240.118207 491.0
241.124188 2720.0
242.103278 283.0
242.121578 318.0
243.105748 574.0
243.111868 864.0
244.064388 61.0
244.107228 111.0
245.116918 2700.0
246.104089 141.0
247.100929 580.0
249.113059 815.0
250.120629 153.0
251.11473 297.0
251.12869 710.0
252.11543 112.0
252.14032 128.0
253.09008 736.0
253.1119 246.0
254.09005 48.0
255.104501 1890.0
256.106851 141.0
257.119031 4670.0
258.114331 164.0
258.123761 262.0
259.133621 4991.0
260.124892 99.0
260.143842 72.0
261.081652 53.0
261.113292 214.0
261.124372 182.0
262.068712 112.0
262.140062 60.0
263.102122 99.0
263.121172 249.0
264.142352 70.0
265.084123 89.0
265.128773 446.0
266.117083 124.0
266.133043 113.0
267.140823 1173.0
268.108783 111.0
269.109023 205.0
269.123493 901.0
269.139543 269.0
270.115954 61.0
271.097364 584.0
273.114034 782.0
274.121965 62.0
275.123585 95.0
276.118915 68.0
277.120925 176.0
277.132345 184.0
278.124775 90.0
279.122236 255.0
279.159866 85.0
280.124746 78.0
280.147726 128.0
281.091296 459.0
281.124166 191.0
281.147146 174.0
282.130266 111.0
283.131576 2115.0
284.123127 107.0
285.118027 695.0
285.136217 1136.0
286.137897 71.0
287.124717 252.0
287.131337 385.0
289.113418 187.0
290.130388 60.0
291.105668 72.0
291.135758 136.0
293.129929 201.0
293.156759 383.0
294.123679 124.0
295.167899 1105.0
296.139819 117.0
297.148789 184.0
297.185929 2352.0
298.15609 271.0
299.08715 66.0
299.13628 2771.0
299.15832 1669.0
300.17409 48.0
301.161 110.0
301.178 291.0
303.137991 179.0
304.141711 70.0
305.152211 175.0
305.159081 180.0
306.128411 61.0
306.162711 43.0
307.106191 64.0
307.147392 139.0
307.169702 286.0
308.082052 103.0
308.133632 61.0
309.159382 160.0
309.185202 490.0
310.181632 84.0
311.145102 768.0
312.136043 91.0
313.144133 1294.0
313.159723 248.0
314.179893 59.0
315.090413 96.0
315.107813 200.0
315.125203 190.0
317.105554 262.0
317.133474 208.0
317.180564 102.0
319.146354 150.0
319.174344 111.0
320.144644 67.0
321.148034 1967.0
322.138915 65.0
322.156525 41.0
323.163055 3003.0
324.171135 64.0
325.166685 337.0
325.186095 1585.0
326.165496 152.0
327.160546 522.0
327.190666 110.0
328.167756 58.0
329.144526 345.0
331.152337 70.0
331.170167 111.0
333.175197 103.0
334.127137 54.0
335.164727 130.0
335.177307 340.0
336.166228 67.0
337.178218 396.0
338.157468 47.0
339.161618 2417.0
340.167238 104.0
341.176179 1259.0
343.189419 211.0
345.17404 2764.0
347.15888 44.0
349.14761 815.0
351.154851 339.0
351.167691 662.0
352.008971 80.0
353.182561 10307.0
354.184781 630.0
355.190282 1410.0
356.169462 46.0
357.144442 97.0
357.170352 180.0
359.181922 39.0
361.204713 65.0
363.194003 195.0
363.928073 58.0
364.206574 57.0
365.140084 70.0
365.199984 109.0
367.151404 1926.0
367.157044 8836.0
368.177004 56.0
369.172035 2620.0
371.147255 82.0
371.181215 86.0
373.152315 54.0
377.146336 113.0
377.155856 101.0
379.190437 369.0
381.201787 572.0
383.124518 125.0
383.157118 501.0
384.152958 65.0
385.167428 1903.0
387.171428 208.0
387.182988 288.0
389.145819 43.0
389.176739 95.0
391.193069 93.0
391.222149 316.0
393.21656 224.0
393.23793 179.0
395.15177 575.0
399.187141 48.0
402.165752 72.0
406.236712 115.0
407.181043 417.0
409.176043 89.0
409.231523 122.0
411.144113 73.0
411.163983 82.0
411.205703 63.0
413.166734 3099.0
417.210805 238.0
419.222155 899.0
421.155936 58.0
424.237446 59.0
424.251576 54.0
425.188336 143.0
425.196426 183.0
427.172257 92.0
427.218827 78.0
431.174278 150.0
434.230918 56.0
435.213339 419.0
437.234819 1324.0
439.207629 190.0
445.210471 537.0
452.234762 132.0
452.249352 408.0
453.220692 137.0
463.216824 2072.0
465.192375 128.0
470.234616 132.0
471.216546 69.0
479.615108 61.0
480.211698 133.0
480.228878 430.0
481.231928 13449.0
483.193819 142.0
483.208889 187.0
498.249362 1002.0
499.238222 494.0
516.267826 593.0

