>compound 
>formula C63H102O31
>parentmass 1372.67432749413
>ionization [M + H3N + H]+
>instrumentation Unknown (LCMS)
>source file:/Users/fanzhoukong/Documents/GitHub/Libgen/data/EAD_PFP/0_unknown_/spectrum.ms
>quality UNKNOWN

>ms2peaks
50.015772 201.0
51.021883 541.0
52.025304 110.0
53.037065 141.0
54.042726 39.0
55.053477 713.0
56.048648 49.0
56.058918 29.0
57.069009 54.0
58.06424 22.0
60.982133 57.0
62.013854 47.0
63.021565 355.0
64.027207 40.0
65.040018 1549.0
66.040079 53.0
67.05418 533.0
68.022681 30.0
68.056611 52.0
68.992422 164.0
69.068932 37.0
73.047166 24.0
74.014027 76.0
75.006768 32.0
75.020348 56.0
76.030029 135.0
77.041311 1424.0
78.039372 133.0
78.043692 273.0
79.055173 634.0
80.051244 163.0
81.069425 236.0
82.060316 22.0
82.067416 33.0
83.047407 18.0
83.081337 41.0
86.0132 36.0
88.020832 17.0
89.039343 387.0
90.042334 76.0
91.053746 2330.0
92.056707 186.0
93.061378 94.0
94.066749 145.0
95.07848 69.0
95.08517 135.0
96.083141 33.0
97.062192 21.0
98.096653 30.0
99.020564 14.0
99.991895 31.0
100.112425 45.0
102.039807 31.0
102.044757 77.0
103.047688 95.0
104.053519 55.0
105.067251 200.0
105.070261 216.0
106.064702 82.0
107.074983 60.0
108.070694 43.0
108.082914 32.0
109.101715 33.0
111.000847 37.0
112.008388 26.0
113.000699 70.0
114.04131 12.0
115.053071 662.0
116.061912 158.0
117.068803 342.0
118.065135 57.0
118.075775 54.0
119.078506 86.0
120.083337 55.0
121.074068 34.0
121.096698 18.0
122.064529 24.0
122.096999 14.0
123.09598 23.0
125.097382 28.0
126.045843 51.0
127.054194 182.0
128.061015 369.0
129.060676 30.0
129.068476 140.0
130.063117 127.0
130.992058 40.0
131.057088 67.0
131.066068 32.0
131.080648 86.0
132.05485 15.0
132.07849 54.0
133.082391 43.0
133.109511 22.0
134.092362 44.0
135.114103 31.0
136.106594 24.0
137.000645 15.0
138.028776 10.0
139.058477 84.0
140.052558 46.0
141.061819 39.0
141.068809 267.0
142.07004 36.0
142.07821 28.0
143.061931 27.0
143.073641 101.0
144.066662 25.0
144.085492 35.0
145.065483 27.0
145.083184 22.0
145.967124 41.0
146.094995 28.0
147.090116 58.0
148.112457 27.0
150.042939 28.0
151.05139 48.0
152.062031 131.0
153.065092 78.0
154.071493 54.0
155.059204 32.0
155.082384 60.0
156.074555 39.0
157.098146 45.0
158.095517 59.0
159.098509 45.0
160.11087 33.0
161.094101 41.0
162.100312 11.0
163.047083 12.0
165.072265 246.0
166.071856 53.0
167.075727 34.0
167.083327 61.0
168.057258 38.0
168.081378 46.0
169.078559 44.0
170.09659 33.0
171.115101 36.0
172.099392 16.0
173.105824 26.0
174.128135 21.0
176.063477 41.0
176.120667 33.0
177.072298 45.0
178.077449 136.0
179.08154 36.0
180.085821 38.0
180.992742 16.0
181.065222 17.0
181.098172 39.0
182.097503 28.0
182.190053 52.0
183.098274 26.0
184.108405 42.0
184.119035 21.0
185.097346 21.0
185.130666 25.0
186.084928 16.0
187.144789 14.0
189.066101 63.0
189.125361 12.0
190.070932 68.0
190.079042 28.0
191.001253 93.0
191.083863 47.0
191.990854 17.0
192.077744 21.0
192.096754 19.0
192.980305 165.0
193.089185 22.0
193.979116 22.0
194.095096 16.0
195.098127 25.0
196.110648 14.0
200.063473 18.0
201.070684 15.0
202.074865 50.0
203.119246 52.0
203.144386 153.0
204.078147 24.0
205.079988 22.0
205.157128 25.0
206.092699 35.0
207.03178 206.0
208.036611 38.0
209.032522 21.0
210.101793 14.0
211.005844 14.0
212.965586 11.0
213.075676 18.0
214.077828 10.0
215.080899 24.0
215.152729 38.0
218.094032 23.0
220.111054 24.0
221.091715 18.0
222.122746 27.0
225.037659 34.0
225.050889 35.0
226.07636 20.0
226.1559 19.0
227.082021 22.0
228.085483 21.0
231.080836 16.0
231.109126 18.0
232.212487 30.0
239.087714 17.0
239.168004 18.0
242.985759 18.0
245.034751 6.0
246.113952 14.0
248.986955 21.0
251.000517 15.0
253.005049 14.0
265.021012 45.0
266.997424 40.0
267.215165 20.0
267.997215 24.0
273.177911 6.0
279.111507 16.0
281.055909 135.0
282.05533 29.0
283.044962 27.0
284.047893 11.0
293.123982 12.0
328.29641 12.0
405.320143 16.0
438.307938 11.0
449.31165 12.0
451.311462 18.0
451.317722 48.0
469.335591 40.0
486.33116 9.0
684.434332 18.0
795.480051 22.0
1043.527618 23.0
1053.535558 6.0
1055.54606 17.0
1059.566455 27.0
1073.55682 20.0
1142.519544 6.0
1205.564291 28.0
1205.594931 71.0
1223.607521 22.0
1337.599703 33.0
1337.642803 87.0
1372.662001 49.0
1372.698381 55.0
1372.894301 17.0

