>compound 
>formula C15H18O6
>parentmass 295.11761929756005
>ionization [M + H]+
>instrumentation Unknown (LCMS)
>source file:/Users/fanzhoukong/Documents/GitHub/Libgen/data/EAD_PFP/0_unknown_/spectrum.ms
>quality UNKNOWN

>ms2peaks
50.01596 305.0
51.023469 679.0
52.031127 54.0
53.038655 211.0
55.020182 13.0
55.036172 84.0
55.055072 105.0
55.935161 12.0
56.050981 11.0
57.035099 22.0
57.069139 13.0
59.050106 73.0
60.982993 8.0
61.028133 23.0
62.013941 60.0
63.02397 331.0
64.021778 7.0
64.029618 15.0
65.040856 1827.0
66.043305 32.0
66.048085 32.0
67.055823 429.0
68.024322 13.0
68.9957 43.0
69.05674 20.0
69.06895 27.0
71.013577 32.0
71.049907 5.0
72.937514 10.0
73.029574 21.0
74.016542 83.0
75.02456 69.0
76.030849 163.0
77.041267 2168.0
78.046236 345.0
79.055104 964.0
80.050292 19.0
81.067581 28.0
81.069351 73.0
82.065559 11.0
83.049108 32.0
84.081626 8.0
85.031064 16.0
85.064494 10.0
86.016723 13.0
87.025421 24.0
88.0299 25.0
89.038288 638.0
90.046836 36.0
90.756575 12.0
91.060135 2215.0
92.060303 120.0
93.070662 311.0
94.04282 10.0
95.053468 27.0
95.077338 14.0
95.085938 51.0
95.956237 10.0
97.029185 121.0
97.949024 8.0
98.016904 7.0
99.041802 7.0
101.040609 41.0
102.048487 316.0
103.054406 731.0
104.063264 64.0
105.073022 1967.0
106.074531 25.0
107.049369 76.0
107.056469 43.0
107.077749 23.0
107.085859 167.0
109.088136 27.0
109.098366 47.0
111.003643 7.0
111.017063 9.0
111.045963 16.0
113.01601 7.0
113.0233 41.0
113.04413 27.0
114.036808 6.0
114.045178 39.0
115.055907 4902.0
116.062645 921.0
116.681904 10.0
117.073763 4343.0
118.039242 8.0
118.071172 25.0
118.076492 27.0
119.07602 6.0
119.08885 1237.0
120.058289 11.0
120.080839 12.0
121.067237 229.0
121.080167 29.0
121.097417 13.0
122.078235 6.0
123.043444 18.0
123.079304 6.0
125.025791 33.0
125.040031 34.0
126.046549 308.0
127.057097 2167.0
128.063926 5170.0
129.072494 2978.0
130.079453 2142.0
131.086941 1647.0
132.045409 7.0
132.055559 18.0
132.096069 8.0
133.088728 63.0
133.101158 177.0
135.047615 84.0
135.064695 16.0
137.095361 117.0
139.045278 22.0
139.057988 148.0
140.063657 16.0
141.072965 2013.0
142.080043 1259.0
143.088372 3078.0
144.0744 18.0
144.09438 462.0
144.607539 6.0
144.625209 10.0
144.631099 20.0
144.638179 24.0
145.105099 7657.0
146.109857 457.0
147.116905 1568.0
147.966514 7.0
149.066022 156.0
149.080382 26.0
149.095932 21.0
150.049591 42.0
151.054439 169.0
152.063888 949.0
153.071816 830.0
154.079434 628.0
155.063513 63.0
155.084253 626.0
156.076441 57.0
156.093571 389.0
157.10247 3136.0
158.073978 254.0
159.080596 7.0
159.105316 96.0
159.118916 1473.0
160.076785 19.0
160.090405 453.0
161.097213 2108.0
162.104672 11.0
163.04022 181.0
163.06397 7.0
163.07524 47.0
163.11277 39.0
164.057468 12.0
165.071627 208.0
166.064905 7.0
166.078785 21.0
167.085224 252.0
168.059132 17.0
168.080722 19.0
168.092152 27.0
169.06134 6.0
169.08682 7.0
169.10338 972.0
170.072939 151.0
170.093369 10.0
171.084957 5250.0
172.089716 887.0
173.093564 363.0
173.097424 3836.0
174.105472 88.0
175.112551 4842.0
176.062759 19.0
176.070559 10.0
176.091359 15.0
176.122559 11.0
177.082018 28.0
177.095048 235.0
178.076756 25.0
179.072965 8.0
179.084765 33.0
180.095613 8.0
181.067131 30.0
182.07034 19.0
182.08091 20.0
183.067038 16.0
183.082958 467.0
184.089057 43.0
185.099245 2649.0
186.065453 12.0
186.074803 13.0
186.106873 27.0
187.082402 27.0
187.089102 258.0
187.099812 235.0
188.07925 12.0
188.08733 102.0
189.094959 4206.0
190.098527 303.0
191.111505 1885.0
192.568753 8.0
193.122432 405.0
194.073831 7.0
194.098381 8.0
195.079549 66.0
197.096036 139.0
198.069584 30.0
199.067623 25.0
199.074533 77.0
200.082041 22.0
201.094859 1975.0
202.079598 5.0
202.103268 17.0
203.110026 3035.0
204.082895 9.0
205.123993 386.0
207.03091 16.0
207.06616 21.0
208.032898 10.0
209.051447 8.0
211.073264 33.0
213.08478 14.0
213.09336 1298.0
214.098429 20.0
215.113027 124.0
216.081076 8.0
217.087354 42.0
218.093102 7.0
219.101181 1937.0
221.121358 487.0
223.077654 15.0
227.070708 9.0
229.087205 172.0
230.340313 11.0
231.103662 3201.0
233.118488 11.0
235.095495 6.0
235.145065 8.0
241.078136 20.0
241.087256 187.0
247.082026 8.0
247.095886 46.0
249.114173 4010.0
250.126401 11.0
259.101617 150.0
267.001054 9.0
277.110648 80.0
281.054672 26.0
282.05077 6.0
295.12192 27.0
295.152219 14.0

