>compound 
>formula C12H17N4OS
>parentmass 283.1461283596
>ionization [M + H3N + H]+
>instrumentation Unknown (LCMS)
>source file:/Users/fanzhoukong/Documents/GitHub/Libgen/data/EAD_PFP/0_unknown_/spectrum.ms
>quality UNKNOWN

>ms2peaks
50.013255 148.0
51.020771 708.0
52.017847 30.0
52.029147 36.0
53.036693 741.0
55.047314 272.0
55.053134 1131.0
56.880885 35.0
57.068696 3404.0
58.859416 35.0
59.050477 1787.0
59.051977 2925.0
59.999773 22.0
60.991839 28.0
62.012855 28.0
63.01747 110.0
65.035892 1494.0
66.042298 66.0
67.054834 1967.0
68.990675 21.0
69.031365 689.0
71.048167 56.0
73.058839 39.0
75.02117 40.0
77.034442 95.0
77.037022 2591.0
78.044588 246.0
78.794122 24.0
79.054333 1940.0
80.059189 60.0
81.068615 1939.0
83.011806 1868.0
85.063828 3328.0
87.04307 47.0
89.039531 92.0
90.045327 103.0
90.747611 38.0
91.055833 3544.0
92.061629 216.0
93.067295 1300.0
94.03946 160.0
95.066336 870.0
95.083526 715.0
96.055582 36.0
97.065388 682.0
99.033559 37.0
100.037305 31.0
102.047107 41.0
102.726121 17.0
103.056023 583.0
104.054919 38.0
105.070674 1851.0
106.0732 50.0
107.049066 19.0
107.072376 2824.0
107.082516 2587.0
108.055872 562.0
108.430944 26.0
109.066368 3759.0
110.068213 49.0
111.079789 498.0
112.99913 15.0
114.041846 12.0
115.055722 1001.0
116.061418 132.0
117.068314 541.0
118.04123 36.0
118.04762 42.0
119.047046 146.0
119.058796 265.0
119.085526 156.0
120.056041 238.0
121.063907 6954.0
121.695291 22.0
122.068413 432.0
122.685047 30.0
123.039029 22.0
123.065109 4495.0
123.077069 3590.0
123.917514 17.0
124.051685 52.0
124.065865 49.0
125.05972 171.0
125.06958 361.0
125.081631 615.0
125.090391 826.0
126.049826 19.0
127.046062 24.0
127.055992 49.0
127.556705 14.0
128.060608 173.0
129.056954 32.0
129.071424 67.0
130.063859 26.0
131.053345 93.0
131.069055 29.0
132.040981 17.0
132.058981 62.0
133.065077 514.0
134.068183 218.0
135.084169 3315.0
136.066254 73.0
137.0588 247.0
137.06223 429.0
138.069916 1877.0
139.072032 222.0
141.074323 52.0
142.070929 47.0
143.061655 41.0
144.056991 40.0
144.081681 33.0
145.061696 207.0
145.069956 196.0
146.074612 48.0
147.043538 226.0
147.066108 252.0
148.044274 45.0
148.055004 153.0
148.074074 86.0
149.06156 1211.0
150.069135 383.0
150.560358 72.0
150.577188 35.0
151.082491 10811.0
151.844456 26.0
152.059407 85.0
152.077537 187.0
152.384529 23.0
152.57809 33.0
152.59986 58.0
153.095213 9112.0
154.065229 38.0
155.085865 20.0
156.0793 34.0
157.062376 22.0
157.095536 26.0
158.096602 18.0
159.052638 27.0
159.078578 31.0
160.061143 53.0
160.089654 35.0
161.059149 751.0
162.069005 310.0
162.538278 36.0
163.075751 3261.0
164.041697 51.0
164.071817 81.0
164.080597 62.0
165.055802 1395.0
165.070893 214.0
166.066718 549.0
167.069324 34.0
167.083254 44.0
168.0813 18.0
169.072136 36.0
169.093796 26.0
171.081737 22.0
172.092923 23.0
173.059409 31.0
173.098069 22.0
174.066065 69.0
175.076951 163.0
175.086011 96.0
176.068656 19.0
177.078812 76.0
177.089232 351.0
178.082708 35.0
178.100998 45.0
179.068464 607.0
180.07664 444.0
180.481772 53.0
180.504132 83.0
180.519932 29.0
181.088975 15456.0
182.086971 48.0
182.176872 99.0
182.638624 21.0
189.089082 30.0
193.093385 42.0
195.101027 10.0
197.677832 33.0
202.093157 19.0
203.108283 25.0
204.110539 41.0
205.125085 8.0
207.137747 39.0
209.557131 8.0
211.876464 285.0
215.108483 17.0
217.117465 49.0
219.102426 23.0
220.114272 15.0
220.920207 13.0
221.122648 34.0
222.669467 8.0
225.127671 16.0
225.592384 8.0
227.044022 10.0
229.119714 11.0
231.090166 8.0
233.118407 21.0
235.132989 52.0
235.158539 13.0
237.153221 19.0
238.154477 8.0
240.184578 17.0
241.638207 18.0
244.334952 15.0
246.062222 8.0
247.132909 60.0
248.113344 8.0
251.129902 29.0
265.023272 24.0
265.138113 46.0
265.160423 12.0
268.07166 8.0
281.053395 13.0
283.156188 526.0

