>compound 
>formula C31H52O3
>parentmass 495.3808665346701
>ionization [M + Na]+
>instrumentation Unknown (LCMS)
>source file:/Users/fanzhoukong/Documents/GitHub/Libgen/data/EAD_PFP/0_unknown_/spectrum.ms
>quality UNKNOWN

>ms2peaks
115.050735 17.0
115.055985 95.0
117.059002 41.0
119.08785 69.0
121.067297 105.0
121.100717 35.0
122.075046 75.0
123.081534 91.0
124.113983 18.0
127.050529 42.0
128.062877 222.0
130.064965 54.0
132.081472 22.0
149.098308 177.0
150.126377 40.0
151.052026 50.0
152.062644 177.0
153.070573 91.0
154.062362 57.0
155.08057 37.0
156.087399 48.0
158.096116 41.0
161.064832 26.0
163.055169 30.0
164.082528 197.0
165.087926 686.0
166.063565 72.0
167.067434 54.0
168.057782 23.0
168.071742 36.0
169.075281 55.0
170.09967 38.0
171.100258 54.0
172.111477 33.0
173.094745 52.0
174.101504 28.0
175.073583 19.0
175.128023 67.0
176.061361 48.0
177.09364 57.0
178.077939 52.0
179.059757 55.0
179.087277 41.0
180.989255 48.0
182.074183 74.0
182.189203 32.0
185.088479 31.0
186.059968 54.0
186.070658 43.0
187.111746 92.0
188.119435 40.0
189.063824 41.0
189.124433 20.0
190.097032 51.0
191.084271 48.0
192.979348 77.0
193.084148 36.0
195.094425 27.0
196.097314 34.0
197.128892 25.0
199.11307 11.0
201.057177 33.0
203.066554 23.0
203.080514 59.0
205.116801 136.0
207.034949 43.0
207.102619 79.0
208.110417 41.0
209.105076 30.0
210.109205 42.0
211.111483 40.0
212.143252 39.0
214.112529 21.0
215.125728 15.0
218.102984 24.0
225.043794 40.0
225.142254 19.0
227.097021 48.0
229.080999 62.0
230.091817 218.0
233.106233 20.0
234.080932 22.0
236.078569 17.0
239.242405 11.0
241.085422 99.0
243.098909 22.0
245.110026 12.0
249.98972 19.0
253.123565 31.0
255.109943 86.0
264.004581 12.0
265.022649 40.0
266.999056 15.0
269.111324 69.0
270.119872 188.0
281.054207 115.0
282.050336 48.0
283.127324 55.0
284.135353 55.0
285.181551 22.0
297.146045 69.0
298.148244 146.0
311.150876 37.0
311.161256 652.0
327.077834 86.0
339.187367 70.0
340.198476 55.0
344.25786 12.0
347.071756 54.0
347.139296 108.0
353.210638 160.0
367.226949 82.0
368.230057 24.0
379.221342 62.0
381.225159 33.0
381.244259 107.0
382.369778 27.0
383.136407 49.0
401.333552 26.0
401.347292 13.0
407.193224 52.0
409.275441 86.0
409.305161 46.0
411.158338 12.0
413.378125 64.0
421.228604 29.0
422.234463 55.0
423.293942 138.0
428.361835 115.0
429.370073 51.0
430.383592 4005.0
433.396618 32.0
435.403665 61.0
437.319042 98.0
439.19553 58.0
449.175686 42.0
450.351584 106.0
451.343773 219.0
451.362483 197.0
452.364122 4431.0
454.792588 12.0
459.456982 12.0
462.270818 15.0
465.336214 32.0
472.382714 26.0
472.393364 29.0
477.330947 31.0
478.414536 31.0
479.226975 76.0
479.332045 51.0
480.362073 12.0
493.365535 373.0
493.761625 87.0
494.373494 466.0
495.389003 6782.0

