>compound 
>formula C30H48O6
>parentmass 527.33431026446
>ionization [M + Na]+
>instrumentation Unknown (LCMS)
>source file:/Users/fanzhoukong/Documents/GitHub/Libgen/data/EAD_PFP/0_unknown_/spectrum.ms
>quality UNKNOWN

>ms2peaks
50.015451 136.0
51.022961 722.0
52.029922 116.0
53.038153 193.0
54.036623 34.0
55.054574 668.0
56.050485 74.0
57.056805 16.0
57.988496 16.0
60.984038 50.0
62.013459 29.0
62.017309 78.0
63.025049 184.0
65.041171 1270.0
66.045221 217.0
67.053742 745.0
68.050513 34.0
68.994413 128.0
73.047526 16.0
75.018157 72.0
76.030398 143.0
77.038239 923.0
78.043189 342.0
79.05553 650.0
80.051601 167.0
81.068901 230.0
82.070442 61.0
83.081693 53.0
84.051543 8.0
85.050494 18.0
86.013555 25.0
87.022245 29.0
89.035077 56.0
89.037847 406.0
90.043617 125.0
91.056898 1251.0
92.055179 249.0
93.064559 177.0
94.06425 136.0
95.083601 100.0
96.087331 59.0
97.075082 45.0
98.097003 30.0
99.991264 40.0
100.114724 44.0
102.044115 133.0
103.052006 355.0
104.057857 90.0
105.068597 648.0
106.069078 68.0
107.075319 89.0
109.06215 7.0
111.000151 17.0
113.002073 38.0
113.038523 18.0
115.053404 825.0
116.059085 165.0
117.068075 329.0
118.070786 95.0
119.085257 211.0
120.080448 58.0
121.101348 49.0
122.103829 21.0
123.08327 23.0
126.045072 65.0
126.899972 38.0
127.060042 163.0
128.061343 651.0
129.071024 202.0
130.064564 57.0
130.065674 201.0
131.082095 149.0
132.061936 62.0
132.079946 38.0
133.101926 706.0
134.092687 50.0
134.994888 18.0
135.120118 32.0
137.002109 15.0
139.05762 107.0
140.049381 43.0
141.070292 345.0
142.072682 175.0
143.068093 12.0
143.080983 88.0
144.081094 162.0
145.095304 101.0
146.075175 43.0
146.094115 38.0
147.109436 45.0
147.117766 86.0
148.111586 27.0
151.044478 8.0
152.059909 128.0
153.0739 90.0
154.07179 104.0
155.088811 90.0
157.094772 58.0
158.099503 67.0
159.106224 81.0
160.116104 8.0
161.129215 37.0
163.056146 62.0
164.062167 43.0
165.068798 311.0
166.077198 101.0
167.074759 98.0
168.06896 55.0
168.08168 70.0
169.08142 22.0
169.09924 49.0
170.103271 37.0
171.112832 86.0
172.109962 64.0
173.131913 84.0
174.124554 26.0
175.130404 52.0
176.062455 62.0
177.071276 33.0
177.127336 39.0
178.077746 191.0
179.059537 61.0
179.077897 88.0
179.088377 57.0
180.084798 94.0
181.074738 34.0
182.092499 26.0
182.191669 51.0
183.06144 21.0
183.09325 50.0
183.19932 58.0
184.08477 22.0
184.11268 34.0
185.117621 31.0
186.130642 28.0
187.051272 35.0
187.103542 76.0
187.130332 27.0
189.067714 57.0
189.086574 103.0
189.125654 21.0
190.064444 19.0
190.076604 42.0
191.001535 111.0
191.031325 65.0
191.080075 34.0
191.103085 17.0
192.087516 51.0
192.973776 39.0
193.000986 35.0
193.100356 56.0
193.982117 19.0
194.094007 51.0
195.094308 108.0
196.097178 32.0
197.128769 42.0
199.153051 29.0
200.067901 16.0
201.070952 30.0
202.076543 91.0
203.113943 29.0
203.141853 197.0
204.091004 36.0
204.146994 20.0
205.081635 61.0
205.119525 49.0
206.102805 34.0
207.030646 160.0
208.026987 60.0
208.114587 27.0
209.027107 18.0
211.053079 16.0
211.145589 20.0
212.146049 16.0
213.0688 19.0
215.082591 19.0
216.089462 22.0
217.108743 34.0
219.113964 17.0
220.098225 44.0
221.121105 32.0
222.133206 36.0
223.092047 24.0
223.135937 20.0
225.098158 28.0
225.161368 20.0
226.081029 47.0
227.083739 20.0
229.083991 23.0
230.094821 47.0
232.133633 26.0
233.118243 17.0
234.101964 20.0
234.133444 38.0
235.149335 13.0
237.110786 22.0
238.114967 40.0
239.090987 35.0
242.107209 21.0
243.11122 12.0
246.129562 27.0
247.129553 13.0
248.148533 26.0
249.130954 30.0
250.158715 15.0
252.082116 22.0
253.165797 15.0
255.114788 51.0
255.210238 8.0
257.049259 20.0
259.123481 16.0
261.141122 19.0
262.155253 26.0
263.125283 47.0
265.022845 61.0
266.119585 35.0
266.146745 34.0
266.997636 51.0
268.978167 25.0
269.108327 16.0
269.225668 17.0
271.161179 50.0
273.14898 22.0
278.153494 101.0
279.155904 95.0
280.176535 10.0
281.051175 160.0
282.048946 62.0
283.050107 16.0
284.071228 8.0
291.138402 26.0
291.155122 118.0
291.171812 35.0
292.157233 20.0
292.168943 78.0
293.177854 38.0
296.238556 8.0
301.131389 23.0
303.15601 9.0
306.093422 18.0
310.222305 16.0
311.118456 17.0
311.197956 29.0
316.107779 8.0
319.189351 19.0
326.968466 8.0
329.246888 8.0
331.112359 16.0
333.258481 8.0
335.126312 19.0
337.199033 15.0
337.283573 8.0
353.214914 26.0
354.209825 21.0
355.231975 31.0
357.182537 13.0
359.149578 24.0
361.164839 15.0
363.243641 9.0
365.232902 37.0
368.178094 38.0
369.284205 10.0
371.246486 8.0
373.234797 11.0
376.272859 13.0
378.085931 8.0
380.300692 13.0
381.166563 19.0
391.294959 17.0
394.216801 18.0
395.246382 54.0
397.213913 12.0
397.295943 25.0
407.16838 49.0
409.173241 37.0
409.183151 463.0
410.269792 8.0
411.254563 24.0
412.256434 94.0
421.26974 11.0
422.31591 10.0
423.260621 25.0
424.303222 30.0
425.262262 75.0
426.278993 51.0
427.181554 96.0
427.207884 54.0
429.304045 10.0
431.271086 20.0
432.303137 21.0
433.299718 25.0
434.311738 23.0
437.31184 10.0
439.280712 43.0
443.229594 32.0
443.244034 74.0
444.193275 33.0
444.251085 48.0
445.209636 116.0
447.258317 14.0
451.31362 39.0
452.32768 32.0
453.299091 28.0
459.260705 16.0
463.321408 14.0
465.305659 41.0
465.333129 68.0
467.30893 119.0
468.321741 29.0
471.704923 7.0
477.304327 49.0
479.318238 52.0
480.324649 30.0
481.31705 112.0
481.32993 297.0
482.331981 1236.0
483.348001 85.0
486.225323 22.0
491.273607 35.0
495.305249 115.0
496.3152 61.0
497.291221 33.0
499.193592 8.0
508.298268 25.0
508.320368 34.0
509.299279 83.0
509.325799 60.0
510.285759 17.0
511.29092 42.0
511.30862 124.0
512.317011 44.0
525.312019 147.0
526.32514 175.0
527.334721 4812.0
527.341441 9854.0

