>compound 
>formula C16H20O5
>parentmass 293.13835474245
>ionization [M + H]+
>instrumentation Unknown (LCMS)
>source file:/Users/fanzhoukong/Documents/GitHub/Libgen/data/EAD_PFP/0_unknown_/spectrum.ms
>quality UNKNOWN

>ms2peaks
50.015492 174.0
51.022303 693.0
52.030664 51.0
53.038195 83.0
55.019736 27.0
55.053166 160.0
56.965128 28.0
57.071648 33.0
59.04966 53.0
60.984081 63.0
62.014272 37.0
63.022763 225.0
64.028404 51.0
65.034115 68.0
65.039645 617.0
66.043675 56.0
67.053796 193.0
68.044097 22.0
68.994468 159.0
69.070158 31.0
71.0495 78.0
74.012762 28.0
74.016982 119.0
75.011433 55.0
75.023303 94.0
76.030454 162.0
77.040015 1890.0
78.044976 288.0
79.052976 255.0
80.050787 92.0
81.055728 24.0
81.070728 156.0
82.069609 23.0
83.05051 57.0
85.027971 108.0
86.009992 25.0
87.046073 23.0
89.038845 565.0
90.046476 101.0
91.049487 353.0
91.056037 2616.0
92.058997 124.0
93.059908 71.0
93.069358 75.0
94.057669 19.0
94.066219 42.0
95.0512 33.0
95.08463 50.0
95.953011 24.0
97.027872 19.0
97.978732 23.0
99.042433 24.0
101.055035 142.0
101.059955 99.0
102.045176 268.0
103.054077 965.0
104.054938 85.0
104.062928 75.0
105.069678 507.0
106.062099 36.0
107.06425 46.0
107.07844 49.0
108.084351 31.0
109.064282 74.0
109.109302 13.0
110.098983 20.0
111.004363 25.0
111.041523 37.0
112.997995 60.0
114.043826 20.0
115.054547 805.0
116.060228 85.0
117.067098 292.0
118.041069 49.0
118.067679 38.0
119.05007 122.0
119.06183 80.0
119.08534 18.0
120.068731 13.0
121.061552 45.0
123.117054 23.0
125.095615 19.0
126.046266 88.0
127.055717 175.0
128.061438 474.0
129.052199 57.0
129.068889 168.0
130.057949 57.0
131.05078 2355.0
132.056411 36.0
133.067002 221.0
134.090493 28.0
137.060685 21.0
139.043867 14.0
139.055417 26.0
140.056458 34.0
141.069219 138.0
142.06112 30.0
142.07279 44.0
142.99439 25.0
143.08226 76.0
144.057681 21.0
144.074151 31.0
145.034052 17.0
145.069452 61.0
145.096582 18.0
146.036213 22.0
147.046574 109.0
147.966274 29.0
149.062205 29.0
149.098075 24.0
151.053017 58.0
152.061228 216.0
153.064319 101.0
154.06583 34.0
155.06573 35.0
155.08281 78.0
156.087231 59.0
157.054372 20.0
157.070332 66.0
158.075003 21.0
158.097173 40.0
159.045794 713.0
160.051775 128.0
161.058466 735.0
162.057076 33.0
163.048777 52.0
164.052258 20.0
165.061349 16.0
165.072689 119.0
166.07228 38.0
167.073631 79.0
168.046231 51.0
168.071631 34.0
168.080511 40.0
169.086622 45.0
170.072733 16.0
171.045054 82.0
171.074524 16.0
172.048415 30.0
173.059856 385.0
174.047116 15.0
175.039797 866.0
176.061278 27.0
176.066488 25.0
177.054459 206.0
178.07135 36.0
179.070161 25.0
180.082292 23.0
181.077502 22.0
182.072803 24.0
183.081464 60.0
184.054335 27.0
185.059126 46.0
186.063957 22.0
187.039367 376.0
188.147628 30.0
188.429919 22.0
189.063829 3577.0
190.05244 51.0
190.0619 158.0
190.998981 19.0
191.068021 23.0
191.080211 33.0
192.990232 24.0
193.082793 35.0
194.072313 24.0
195.082144 28.0
196.113785 22.0
197.102786 25.0
198.109427 23.0
199.035708 28.0
199.056438 22.0
199.078548 32.0
201.053059 403.0
202.04466 41.0
202.07807 35.0
203.045681 64.0
203.068021 97.0
204.072962 17.0
205.059353 36.0
205.123883 22.0
207.032214 68.0
208.021465 22.0
209.117916 28.0
210.069547 27.0
211.074568 36.0
212.081999 53.0
213.054649 210.0
215.072701 42.0
215.114351 53.0
217.064173 41.0
217.071383 128.0
217.085823 141.0
218.048164 21.0
219.067724 80.0
221.065916 27.0
228.079992 67.0
229.088613 22.0
229.159773 31.0
231.100615 53.0
233.064576 16.0
233.136376 31.0
233.154316 43.0
235.086418 31.0
239.119941 13.0
243.100705 495.0
247.166688 41.0
247.178998 31.0
248.056129 13.0
250.064401 16.0
253.136373 16.0
257.148396 18.0
259.101588 22.0
261.06058 27.0
261.11441 56.0
262.069821 85.0
265.019833 28.0
267.002655 33.0
275.131232 19.0
275.171852 45.0
277.047073 22.0
278.047494 34.0
281.046467 40.0
293.134457 226.0
293.186457 34.0

