>compound 
>formula C16H26O7
>parentmass 331.17513417497
>ionization [M + H]+
>instrumentation Unknown (LCMS)
>source file:/Users/fanzhoukong/Documents/GitHub/Libgen/data/EAD_PFP/0_unknown_/spectrum.ms
>quality UNKNOWN

>ms2peaks
126.047132 31.0
127.054372 158.0
128.061183 422.0
129.066424 180.0
130.065524 102.0
131.049405 386.0
132.080916 51.0
133.097256 43.0
134.094787 54.0
134.107267 38.0
135.115408 28.0
137.062729 62.0
139.05285 101.0
140.051561 34.0
141.067782 322.0
142.067852 36.0
142.074862 53.0
143.073803 97.0
144.056234 21.0
144.082104 67.0
145.063274 65.0
145.091594 80.0
146.093955 22.0
147.087886 40.0
163.052206 34.0
164.051967 59.0
165.062308 75.0
165.068598 398.0
166.074488 113.0
167.078379 172.0
167.087239 121.0
168.05609 123.0
169.06083 36.0
169.08377 67.0
169.09905 69.0
170.086471 75.0
171.088302 284.0
172.102062 62.0
173.100763 280.0
174.133404 60.0
175.084834 112.0
175.150954 60.0
176.064845 68.0
177.065876 65.0
178.076246 148.0
179.079007 182.0
180.075378 99.0
181.067938 194.0
182.068519 38.0
182.186179 73.0
183.07581 47.0
184.09253 98.0
185.104081 123.0
186.130422 44.0
187.104662 33.0
188.059963 44.0
189.074224 415.0
190.075054 123.0
190.999965 144.0
191.083915 30.0
192.090026 30.0
192.983076 134.0
194.092417 112.0
195.074938 51.0
195.087248 76.0
196.110689 76.0
197.081789 62.0
197.099669 54.0
198.06357 35.0
199.119641 33.0
200.059361 25.0
201.067962 28.0
202.077703 210.0
203.122093 144.0
203.144423 178.0
204.094974 45.0
204.148164 42.0
205.068795 36.0
206.094135 85.0
207.030416 234.0
210.063488 39.0
210.133068 47.0
211.115459 135.0
213.13004 245.0
214.064951 27.0
215.082351 48.0
217.092633 32.0
217.148943 39.0
218.073793 76.0
218.128763 44.0
219.078914 38.0
221.062595 79.0
222.127126 22.0
223.145917 40.0
225.090568 148.0
226.079299 52.0
227.101219 68.0
228.08991 48.0
229.061501 30.0
229.098561 98.0
231.083812 56.0
234.068714 25.0
235.123525 39.0
236.138555 68.0
238.064817 39.0
239.080107 101.0
241.083709 39.0
243.10025 41.0
247.073843 59.0
248.080353 35.0
248.988434 54.0
250.158425 30.0
250.967865 27.0
251.070305 21.0
252.044496 27.0
253.084467 287.0
254.089107 36.0
255.095728 36.0
257.092929 24.0
258.17945 41.0
260.138131 42.0
261.091742 21.0
264.130204 64.0
265.020945 98.0
266.998946 34.0
267.997117 43.0
269.080707 32.0
270.087598 39.0
271.096359 85.0
275.101461 16.0
278.102534 25.0
281.054165 61.0
281.059075 145.0
283.046507 35.0
283.110777 24.0
284.107238 39.0
285.108728 70.0
289.117401 36.0
295.143285 44.0
297.075136 41.0
298.073827 24.0
299.099648 38.0
300.094978 23.0
301.102149 13.0
303.17786 36.0
312.096876 26.0
313.099717 112.0
314.126728 26.0
315.091078 28.0
316.093489 12.0
329.194968 28.0
330.162568 48.0
331.186859 833.0
331.199339 1097.0

