>compound 
>formula C21H20O14
>parentmass 519.0745263185801
>ionization [M + Na]+
>instrumentation Unknown (LCMS)
>source file:/Users/fanzhoukong/Documents/GitHub/Libgen/data/EAD_PFP/0_unknown_/spectrum.ms
>quality UNKNOWN

>ms2peaks
50.015182 117.0
51.02269 305.0
52.030338 57.0
53.037857 57.0
54.041355 7.0
55.054253 183.0
56.053091 13.0
57.071999 10.0
58.040378 7.0
60.984423 20.0
62.015381 45.0
63.023869 291.0
64.026377 47.0
65.039175 610.0
67.053302 155.0
68.998028 121.0
74.014729 28.0
75.022738 47.0
77.035124 71.0
77.036844 635.0
79.051491 151.0
79.055851 232.0
80.048409 57.0
81.070977 74.0
82.064535 27.0
83.911792 16.0
85.06073 36.0
88.030665 14.0
89.039063 121.0
90.043891 43.0
91.057179 1330.0
92.056388 119.0
93.061046 73.0
94.067364 81.0
95.060942 22.0
101.032552 32.0
102.04732 68.0
104.049096 89.0
105.070825 133.0
106.065273 44.0
107.073511 61.0
108.083469 16.0
109.081808 28.0
110.999324 16.0
112.999151 25.0
114.048119 19.0
115.055707 498.0
116.059275 104.0
117.064023 109.0
119.08116 25.0
120.080628 30.0
123.045403 15.0
125.039809 12.0
126.047428 42.0
127.056876 86.0
128.062584 342.0
129.068932 93.0
130.06805 63.0
130.991399 82.0
131.071019 74.0
132.077827 37.0
133.016175 14.0
133.100925 17.0
134.098463 16.0
135.040562 23.0
135.087222 7.0
138.044186 10.0
139.056585 66.0
140.051823 46.0
141.069221 131.0
142.063449 35.0
143.077578 59.0
144.070606 33.0
144.082366 39.0
145.032864 11.0
145.069444 21.0
145.969902 43.0
146.095392 21.0
147.07864 23.0
147.965069 29.0
149.039447 16.0
150.045715 20.0
151.055393 26.0
152.059982 104.0
153.06306 70.0
154.058488 36.0
155.070556 58.0
156.065145 27.0
157.067813 15.0
158.076161 33.0
159.095139 27.0
162.126834 29.0
164.04466 12.0
164.05468 48.0
165.070059 131.0
166.074717 69.0
167.060875 25.0
167.077325 89.0
168.077883 46.0
169.095442 40.0
170.07518 27.0
170.09563 16.0
172.111266 19.0
173.994023 86.0
175.000781 84.0
176.057259 18.0
176.063759 44.0
177.062147 11.0
178.076436 69.0
179.083124 54.0
180.078202 51.0
180.954781 15.0
180.987731 14.0
182.096449 45.0
183.040217 40.0
184.108665 12.0
186.119901 21.0
188.052058 24.0
189.071716 79.0
190.076565 41.0
190.998783 39.0
191.999231 26.0
192.979159 56.0
194.080297 10.0
194.103507 36.0
195.025846 23.0
195.103826 27.0
196.109484 28.0
197.130082 11.0
198.13127 10.0
200.062297 18.0
201.062555 26.0
202.077843 45.0
203.077552 26.0
204.08672 28.0
205.087168 17.0
206.070366 19.0
207.033385 113.0
208.035353 21.0
209.032671 14.0
210.126089 12.0
212.992894 32.0
214.072252 17.0
215.08535 39.0
216.083549 24.0
217.092747 49.0
218.095605 14.0
220.114081 17.0
221.08309 24.0
223.128476 12.0
226.079401 26.0
228.094437 42.0
230.085744 15.0
231.179202 16.0
232.1036 24.0
234.100287 13.0
235.135645 26.0
239.095338 8.0
241.082274 13.0
242.982721 12.0
243.086571 16.0
245.109917 17.0
246.124746 8.0
248.99005 41.0
251.079677 8.0
254.96436 8.0
257.070996 8.0
259.138983 8.0
262.113747 8.0
265.017792 61.0
267.010189 31.0
268.981105 33.0
272.07469 14.0
277.139501 8.0
281.050874 457.0
282.058502 32.0
284.049439 14.0
287.050623 21.0
289.05242 15.0
297.081856 8.0
299.070802 31.0
303.046475 32.0
319.110167 15.0
321.059103 16.0
321.802022 8.0
322.80095 14.0
324.987106 14.0
326.964493 65.0
331.042396 80.0
331.056646 25.0
333.059542 9.0
341.015708 55.0
345.018081 10.0
347.035347 12.0
348.048895 34.0
349.056644 350.0
359.182486 8.0
365.048895 113.0
366.060304 62.0
367.063722 260.0
368.958009 20.0
384.99494 18.0
385.33521 8.0
395.158122 8.0
399.007605 32.0
407.100491 8.0
415.023137 40.0
415.039107 106.0
417.803772 8.0
437.159518 8.0
441.80074 29.0
443.798236 11.0
447.18297 8.0
459.814288 17.0
473.071015 147.0
486.743021 8.0
500.040077 19.0
500.057597 29.0
501.065805 269.0
502.072793 8.0
503.111582 18.0
517.052017 30.0
517.060927 71.0
518.061595 786.0
519.078863 6077.0

