>compound 
>formula C14H16O5
>parentmass 265.10705461353007
>ionization [M + H]+
>instrumentation Unknown (LCMS)
>source file:/Users/fanzhoukong/Documents/GitHub/Libgen/data/EAD_PFP/0_unknown_/spectrum.ms
>quality UNKNOWN

>ms2peaks
77.037353 32.0
79.052891 29.0
83.013818 34.0
83.378378 11.0
91.055921 33.0
92.61427 24.0
103.055921 27.0
105.072539 30.0
107.043828 53.0
113.043652 21.0
115.041771 70.0
115.054381 1157.0
115.061731 1626.0
116.05583 94.0
116.06744 94.0
116.08011 33.0
117.061629 85.0
117.072229 223.0
118.041958 25.0
118.078148 40.0
119.052027 64.0
119.076617 49.0
121.034426 39.0
121.065686 59.0
123.054924 40.0
126.044971 35.0
126.058171 38.0
127.057731 115.0
128.03574 28.0
128.06567 178.0
129.065359 52.0
131.040487 160.0
131.068527 105.0
132.073096 42.0
133.058875 67.0
133.067915 189.0
133.079215 213.0
134.034715 114.0
134.048325 244.0
135.076734 239.0
135.082424 1484.0
136.025663 91.0
136.045093 91.0
136.053083 115.0
137.044422 25.0
137.065062 170.0
138.046251 27.0
138.066971 37.0
138.362961 38.0
139.07022 49.0
141.065499 181.0
141.077149 272.0
142.048048 32.0
142.080748 49.0
142.547017 41.0
143.051567 1640.0
143.561697 30.0
144.060986 7460.0
144.612956 37.0
145.066855 18138.0
145.782755 31.0
146.073854 11136.0
146.680684 50.0
147.051094 12561.0
147.057024 12272.0
147.559953 65.0
147.675423 32.0
148.055413 4569.0
148.445452 32.0
149.038042 628.0
149.046402 691.0
149.053592 3023.0
149.067932 2994.0
149.567111 52.0
150.034721 6625.0
150.506651 49.0
150.547521 32.0
151.04555 19867.0
151.70966 32.0
151.87018 27.0
152.045269 100.0
152.059789 105.0
152.069439 121.0
152.578449 24.0
152.877469 32.0
153.041029 28.0
153.070119 139.0
153.073759 109.0
153.088299 295.0
153.094358 220.0
153.731388 39.0
154.053418 40.0
154.130038 23.0
154.261418 24.0
154.941067 30.0
155.037417 44.0
155.050837 120.0
155.072797 29.0
156.061266 104.0
156.400446 47.0
156.873705 85.0
157.035685 89.0
157.067605 1021.0
157.846954 33.0
158.063644 743.0
158.074714 823.0
158.550504 44.0
159.062813 5913.0
159.549983 48.0
160.056463 855.0
160.071363 2272.0
160.075073 2435.0
160.091183 427.0
160.552602 71.0
160.661862 50.0
160.766172 26.0
161.059442 772.0
161.076842 45329.0
161.811231 60.0
162.068031 13442.0
163.07851 20785.0
163.62189 39.0
163.866339 36.0
164.049479 2436.0
164.064539 353.0
164.524099 63.0
164.710119 43.0
164.810719 42.0
164.855989 22.0
165.058558 4696.0
165.488008 59.0
165.533378 33.0
165.745188 57.0
166.065697 22948.0
166.675987 41.0
166.922707 50.0
167.050557 67.0
167.060687 83.0
167.070817 195.0
167.113867 45.0
167.244326 48.0
167.500336 24.0
168.042146 41.0
168.073886 69.0
168.081496 106.0
169.039215 24.0
169.309325 51.0
170.040494 30.0
170.150374 20.0
171.049883 456.0
171.080623 132.0
171.312633 56.0
172.054552 862.0
172.736232 46.0
173.063432 6348.0
173.512191 41.0
174.072671 22993.0
174.64831 47.0
175.03691 32.0
175.07838 16915.0
175.745269 48.0
176.073989 1585.0
176.084379 3222.0
176.460259 53.0
176.487589 82.0
176.590419 54.0
177.052848 35098.0
178.035747 173.0
178.064507 749.0
178.071037 1320.0
178.102407 327.0
178.403227 68.0
178.442487 96.0
178.450347 120.0
178.481747 83.0
178.522317 66.0
178.680737 53.0
178.782897 37.0
178.837897 36.0
179.037086 42300.0
179.837566 28.0
179.859886 77.0
179.887476 33.0
180.034666 170.0
180.045176 1234.0
180.242405 22.0
180.334485 26.0
180.392375 45.0
180.497645 39.0
180.550285 35.0
180.712225 37.0
180.828135 52.0
180.849225 46.0
181.049525 87.0
181.060055 354.0
181.087735 1551.0
181.457034 58.0
181.674844 45.0
181.773884 17.0
181.818794 44.0
181.874274 41.0
181.952234 22.0
182.076464 82.0
182.393854 32.0
182.556614 28.0
182.571173 31.0
182.836003 40.0
182.975123 60.0
183.036073 19.0
183.415323 23.0
183.530753 48.0
183.562613 29.0
183.638263 32.0
183.879952 21.0
184.204232 37.0
184.747072 32.0
185.029471 1537.0
185.549531 33.0
185.642951 40.0
186.035571 69.0
186.044921 83.0
186.070321 88.0
187.04573 541.0
187.05377 723.0
187.07387 326.0
187.08727 157.0
187.437149 31.0
187.681319 52.0
188.054599 232.0
188.063999 705.0
188.073409 782.0
188.438999 61.0
188.666318 57.0
188.822448 84.0
189.062138 10611.0
189.635037 24.0
189.783467 34.0
190.068317 18238.0
190.644087 24.0
191.073106 43100.0
191.845736 31.0
192.079195 10606.0
192.641675 30.0
193.077005 1459.0
193.387494 41.0
193.443354 35.0
193.489664 51.0
193.786844 38.0
194.063774 14785.0
194.603203 25.0
194.698883 35.0
195.044853 31.0
195.070853 24227.0
195.787092 73.0
195.833692 41.0
196.043502 37.0
196.064062 98.0
196.232832 88.0
196.387922 23.0
196.603512 22.0
196.710661 29.0
197.050181 60.0
197.412011 50.0
197.491841 28.0
197.739721 14.0
198.1739 45.0
198.40702 35.0
198.72314 41.0
199.00495 34.0
199.03674 39.0
199.04917 69.0
199.223369 21.0
199.674369 33.0
200.035839 36.0
200.046909 120.0
200.078769 61.0
200.311638 40.0
201.042978 246.0
201.058268 1401.0
201.749207 59.0
202.063797 513.0
202.275517 96.0
202.353537 106.0
202.366097 49.0
202.484567 53.0
202.692306 44.0
202.764836 34.0
203.041126 31341.0
203.776016 30.0
203.843155 25.0
204.083785 21154.0
204.698625 31.0
205.077224 30457.0
205.665434 64.0
205.814374 23.0
206.096974 27616.0
206.710583 46.0
206.773973 63.0
207.068493 38697.0
207.741442 54.0
207.827572 27.0
207.933522 46.0
208.026762 34.0
208.083282 157.0
208.185032 43.0
208.305192 33.0
208.361752 35.0
208.440952 32.0
208.510251 42.0
208.607881 52.0
208.663051 24.0
208.742311 27.0
208.872541 32.0
209.084961 148.0
209.109041 499.0
209.118961 715.0
209.403811 38.0
209.493121 58.0
209.90735 46.0
210.10042 29.0
210.47828 35.0
210.60763 45.0
210.65597 45.0
211.085579 34.0
211.145369 54.0
211.521329 44.0
211.861979 51.0
211.998879 70.0
212.071638 84.0
212.978478 43.0
213.459117 36.0
214.667366 28.0
214.717596 32.0
215.026326 42.0
215.040706 86.0
215.056516 59.0
215.065136 68.0
215.072306 72.0
216.033055 59.0
216.067615 30.0
216.259175 47.0
217.046474 535.0
217.056574 2141.0
217.511424 42.0
218.060783 6367.0
218.544213 54.0
218.652843 77.0
219.074573 2452.0
219.360312 88.0
219.424152 35.0
219.823382 20.0
220.077642 40305.0
220.825241 46.0
221.083001 39385.0
221.77394 64.0
222.09502 7288.0
222.791929 49.0
222.885529 62.0
223.065459 36.0
223.097639 57.0
223.115209 42.0
223.283509 34.0
223.350849 44.0
223.374289 41.0
223.476779 24.0
223.566119 27.0
223.671589 77.0
223.763899 24.0
223.875288 52.0
224.014558 33.0
224.134798 42.0
224.331358 47.0
224.379788 26.0
224.545638 40.0
224.638128 24.0
224.692458 42.0
224.927458 46.0
225.212567 44.0
225.312557 41.0
225.572907 21.0
225.718587 56.0
226.172117 24.0
226.434436 31.0
226.676256 28.0
226.779506 44.0
227.027416 75.0
227.276926 37.0
227.628555 42.0
227.950885 36.0
228.153545 64.0
228.999234 36.0
229.741043 59.0
230.451333 31.0
231.045082 39.0
231.058502 86.0
231.074872 81.0
231.089762 53.0
231.295312 42.0
231.620222 29.0
232.084111 2871.0
233.061171 5886.0
233.9129 31.0
234.07324 577.0
234.08222 1003.0
234.26061 72.0
234.2831 174.0
234.2981 184.0
234.34008 60.0
234.485569 62.0
234.565089 50.0
234.605579 43.0
234.662609 35.0
234.695629 37.0
234.736149 35.0
234.788689 21.0
235.063449 79885.0
236.296648 271.0
236.801377 38.0
236.909937 333.0
237.083367 50.0
237.116547 152.0
238.445886 54.0
239.054376 662.0
240.064185 1284.0
242.680402 13975.0
249.081207 8931.0
249.775876 278.0
250.087156 37590.0
250.842186 160.0
250.860786 45.0
252.089605 99.0
255.263162 205.0
255.731361 84.0
255.886461 218.0
257.11963 74.0
257.71061 6701.0
257.93396 51.0
263.093195 28.0
264.209834 161.0
265.108673 18731.0

