>compound 
>formula C8H10N4O2
>parentmass 195.088165283203
>ionization [M + H]+
>instrumentation Unknown (LCMS)
>source file:/Users/fanzhoukong/Documents/GitHub/Libgen/data/NIST_MONA/0_unknown_/spectrum.ms
>quality UNKNOWN

>ms2peaks
28.0166 0.49
41.0252 1.33
42.033 100.0
42.0702 3.7
42.0782 1.31
42.2873 0.35
44.0478 0.52
45.0343 2.03
53.0131 5.95
53.996 0.97
54.0201 3.52
54.0336 3.83
54.9453 0.6
55.932 0.36
56.0498 8.02
67.0277 0.74
68.0119 0.43
68.0365 12.36
68.085 0.33
69.0452 8.84
70.0536 0.38
70.2059 0.47
79.0267 0.77
80.0131 0.4
81.0439 5.62
82.052 0.63
83.0605 12.92
83.0986 0.46
85.9806 0.45
95.0599 0.43
96.0274 0.83
108.054 0.99
109.0392 1.31
110.0718 4.28
111.0534 0.49
123.042 9.48
138.0686 4.05

