>compound 
>formula C30H30O13
>parentmass 599.17592202131
>ionization [M + H]+
>instrumentation Unknown (LCMS)
>source file:/Users/fanzhoukong/Documents/GitHub/Libgen/data/EAD_PFP/0_unknown_/spectrum.ms
>quality UNKNOWN

>ms2peaks
121.028541 11.0
123.039199 69.0
125.025897 18.0
126.053246 60.0
127.041745 1163.0
128.061814 234.0
129.069272 130.0
130.066141 70.0
131.0478 86.0
133.030068 977.0
134.036437 100.0
135.057966 41.0
137.050724 92.0
137.061054 49.0
139.044221 50.0
139.050011 84.0
140.05217 56.0
141.070739 117.0
143.043947 80.0
144.063906 29.0
145.054455 610.0
147.042153 54.0
149.02187 17.0
151.847817 11.0
163.050315 51.0
164.061344 31.0
165.067943 334.0
166.062472 35.0
166.075112 62.0
167.07898 99.0
168.066849 117.0
169.053808 795.0
170.097287 65.0
171.082506 90.0
172.112945 30.0
173.060134 160.0
174.070673 86.0
175.042662 99.0
175.075072 74.0
176.055061 76.0
177.058629 86.0
177.069069 43.0
178.076848 170.0
179.088777 109.0
180.079926 61.0
181.042175 62.0
181.067215 100.0
182.084974 45.0
183.081713 32.0
184.110412 24.0
185.058031 247.0
186.05485 80.0
187.058358 1959.0
189.053296 170.0
190.079695 41.0
191.003274 30.0
191.054724 77.0
191.998293 24.0
193.053092 328.0
194.072541 43.0
195.081 299.0
196.096199 98.0
197.094757 373.0
199.071865 81.0
200.057184 82.0
201.051873 24.0
201.056053 84.0
202.078292 49.0
203.072411 486.0
205.048329 44.0
206.096137 38.0
207.032416 72.0
207.073296 91.0
208.078205 26.0
209.026054 28.0
211.066242 55.0
212.082201 22.0
213.062 158.0
213.07773 146.0
215.071458 100.0
217.049925 61.0
217.088895 45.0
218.090294 52.0
220.113092 35.0
221.066091 60.0
223.079199 208.0
225.050007 43.0
225.088217 47.0
227.069314 84.0
229.068002 36.0
230.092171 30.0
231.06056 332.0
233.084178 50.0
234.123267 27.0
235.065546 36.0
236.137634 22.0
237.061323 11.0
241.081249 34.0
241.084289 660.0
243.067227 98.0
245.081274 669.0
247.055912 34.0
249.07714 480.0
251.072418 113.0
253.069456 43.0
255.058743 68.0
257.079371 46.0
259.057519 80.0
261.081257 52.0
263.092185 1348.0
265.021503 36.0
266.020771 40.0
267.07957 95.0
269.074838 137.0
271.077556 12.0
275.108531 30.0
277.073189 684.0
279.090697 52.0
281.100705 1137.0
282.055784 50.0
283.066833 49.0
287.049558 36.0
287.087728 79.0
295.078229 197.0
299.061225 19.0
303.105051 30.0
305.093538 358.0
305.105508 3574.0
313.09332 30.0
317.632045 12.0
319.093283 38.0
321.108871 104.0
323.114918 410.0
349.10671 37.0
367.12259 100.0
378.297528 22.0
385.11866 85.0
385.1244 649.0
395.114039 839.0
396.125298 48.0
409.094034 54.0
413.124149 1764.0
427.126914 66.0
431.138899 2341.0
445.112494 48.0
445.124914 26.0
453.030055 12.0
519.044022 59.0
541.257918 11.0
545.143844 24.0
553.213175 103.0
558.284579 16.0
580.388795 31.0
581.226934 17.0
590.200434 17.0
599.221114 89.0
599.259504 159.0
599.302654 227.0

