>compound 
>formula C15H22O3
>parentmass 268.19071556777004
>ionization [M + H3N + H]+
>instrumentation Unknown (LCMS)
>source file:/Users/fanzhoukong/Documents/GitHub/Libgen/data/EAD_PFP/0_unknown_/spectrum.ms
>quality UNKNOWN

>ms2peaks
105.070919 44.0
107.084756 555.0
115.053726 2434.0
116.062565 536.0
117.070514 1857.0
118.070043 82.0
119.086642 5924.0
120.09365 167.0
121.084419 542.0
121.095199 884.0
121.103819 928.0
122.110638 1827.0
123.082507 588.0
123.091197 514.0
123.119457 236.0
124.051665 58.0
125.061884 96.0
125.091464 136.0
126.046493 183.0
127.055942 609.0
128.06388 2126.0
129.071339 1047.0
130.074938 168.0
131.088037 717.0
133.103384 59.0
137.905168 22.0
139.078757 177.0
139.804076 22.0
141.072944 633.0
143.084832 1390.0
144.096711 1886.0
144.6417 45.0
145.100349 7981.0
145.107429 8215.0
146.101568 79.0
146.111028 393.0
147.118087 5551.0
148.085696 51.0
148.114286 229.0
149.087534 2093.0
149.099504 3198.0
150.054383 50.0
151.074912 2305.0
152.065071 888.0
153.091199 7071.0
154.078228 659.0
155.086687 2527.0
156.094796 2557.0
157.102484 6134.0
158.097383 1721.0
158.112173 1689.0
159.115202 15210.0
160.097871 570.0
161.11587 4093.0
161.133289 852.0
162.102198 193.0
163.072747 729.0
163.092767 3418.0
164.081336 43.0
165.091795 935.0
166.078823 198.0
167.086512 1023.0
168.092181 321.0
169.10215 1246.0
170.107458 575.0
171.115737 2667.0
172.124456 1999.0
173.102615 916.0
173.118075 17651.0
174.100343 100.0
174.140413 323.0
175.115202 2739.0
176.077111 224.0
176.117401 118.0
177.0964 8470.0
178.074179 167.0
179.095297 60.0
179.108407 138.0
180.075946 81.0
180.102236 68.0
182.103444 620.0
182.110054 1644.0
184.079801 72.0
185.13264 6726.0
186.110949 439.0
186.121639 921.0
186.139009 438.0
186.534838 154.0
187.153467 15342.0
188.133066 73.0
188.159936 103.0
189.156975 1305.0
189.161035 1879.0
191.110222 1133.0
191.126472 13574.0
192.99454 67.0
194.077989 47.0
195.115187 103.0
196.118136 144.0
197.134645 7667.0
199.106413 302.0
200.123701 1066.0
202.135399 94.0
203.143628 890.0
204.147356 1004.0
205.156375 2192.0
207.029603 124.0
213.130655 141.0
214.128644 126.0
215.150503 12858.0
217.12357 155.0
230.855163 45.0
231.130623 71.0
232.141472 307.0
233.15901 16335.0
234.163799 78.0
250.159109 48.0
251.164138 506.0
257.77423 23.0
261.982815 50.0

