>compound 
>formula C46H60N4O13S
>parentmass 909.39504018033
>ionization [M + H]+
>instrumentation Unknown (LCMS)
>source file:/Users/fanzhoukong/Documents/GitHub/Libgen/data/EAD_PFP/0_unknown_/spectrum.ms
>quality UNKNOWN

>ms2peaks
50.016335 60.0
51.023855 255.0
52.023045 14.0
52.030105 42.0
53.039765 134.0
54.034645 9.0
55.054745 173.0
55.934835 8.0
56.049185 11.0
57.071034 16.0
57.934954 7.0
60.984184 35.0
62.016694 45.0
63.022854 145.0
64.029284 15.0
65.040523 583.0
66.045353 59.0
67.054673 191.0
68.048213 7.0
68.057103 7.0
68.996163 183.0
69.071863 15.0
72.082973 7.0
73.047632 11.0
74.016182 28.0
75.016562 24.0
75.023352 54.0
76.032202 86.0
77.040052 851.0
78.044142 91.0
79.054742 215.0
80.055192 64.0
81.068981 128.0
82.074951 7.0
83.084451 18.0
85.047861 6.0
86.017261 5.0
87.021401 12.0
88.029521 13.0
89.039761 182.0
90.03995 17.0
90.04646 20.0
91.05602 1163.0
92.05804 107.0
92.9928 13.0
93.06177 19.0
93.07122 23.0
94.06809 28.0
95.0846 22.0
95.95202 7.0
96.08257 14.0
97.950579 12.0
98.096059 7.0
99.993249 15.0
101.038249 18.0
102.049089 47.0
103.055009 125.0
104.049879 20.0
104.054879 33.0
105.069609 76.0
106.066068 64.0
107.080398 17.0
108.081228 13.0
109.071368 12.0
110.095818 5.0
111.002218 29.0
113.001028 32.0
113.038518 10.0
114.043737 12.0
115.053397 281.0
116.048517 19.0
116.060127 58.0
117.062757 74.0
118.060127 10.0
118.064377 46.0
119.085237 40.0
120.083647 28.0
121.065747 5.0
121.086227 13.0
121.103477 6.0
122.097306 16.0
124.111336 8.0
126.046136 31.0
127.052276 67.0
128.061296 278.0
129.069876 84.0
130.065625 95.0
130.992345 26.0
131.061855 8.0
131.074185 16.0
132.019105 31.0
132.067525 13.0
132.079895 10.0
133.065705 6.0
133.101865 18.0
134.092625 6.0
136.081715 5.0
139.054104 25.0
140.048174 22.0
141.069064 42.0
141.926694 11.0
142.072614 36.0
142.991864 5.0
143.075054 14.0
144.082194 25.0
145.070454 18.0
145.966204 21.0
147.967273 17.0
148.094803 9.0
150.045563 29.0
151.057633 30.0
152.052583 6.0
152.063443 150.0
153.070173 91.0
154.066843 41.0
155.060632 10.0
155.069182 18.0
155.085032 20.0
156.079682 39.0
157.083612 7.0
157.092202 15.0
158.087092 6.0
158.095712 37.0
159.093752 11.0
159.102402 10.0
159.118462 9.0
160.078842 8.0
160.117242 9.0
161.096782 13.0
162.090532 9.0
163.002251 9.0
163.051041 6.0
163.054771 24.0
164.059551 23.0
165.072441 150.0
166.073301 27.0
167.074661 44.0
167.084771 16.0
168.068841 29.0
168.077741 34.0
169.076181 6.0
169.097831 7.0
170.094201 24.0
171.03582 13.0
171.08964 8.0
171.10118 10.0
172.11369 11.0
173.10986 10.0
174.12699 14.0
175.14842 14.0
176.06102 11.0
177.06723 13.0
178.0763 77.0
179.080379 16.0
180.068869 20.0
180.084649 37.0
180.174049 8.0
181.085139 12.0
182.059319 7.0
182.096319 28.0
182.188879 7.0
183.090449 11.0
184.115179 16.0
185.102809 6.0
185.128119 6.0
186.127799 7.0
187.060498 6.0
188.109718 12.0
189.070258 37.0
190.072398 17.0
191.000028 41.0
191.079908 7.0
192.091438 8.0
192.981778 51.0
193.979208 10.0
193.994228 11.0
194.099298 10.0
194.976498 8.0
195.091408 7.0
195.106458 8.0
196.095647 13.0
196.112117 13.0
201.069387 9.0
202.079137 17.0
203.081647 5.0
203.143077 33.0
204.082416 13.0
204.145406 7.0
205.068836 6.0
205.094096 6.0
206.096996 17.0
207.033286 118.0
208.033846 22.0
208.111576 15.0
212.994235 6.0
215.082385 11.0
216.076295 5.0
217.091235 16.0
219.089115 6.0
221.091774 14.0
222.121324 5.0
225.043584 8.0
227.067314 6.0
228.084033 8.0
229.103043 11.0
231.101723 5.0
232.111013 7.0
233.134483 8.0
242.984222 20.0
244.112472 6.0
248.990041 18.0
249.986511 6.0
250.971011 11.0
250.997391 6.0
258.11496 9.0
260.12869 6.0
265.020969 23.0
266.021849 13.0
266.995789 17.0
267.010189 14.0
268.993988 8.0
281.050897 68.0
282.050317 24.0
283.043237 11.0
312.974943 5.0
325.020772 7.0
353.188798 7.0
357.158098 5.0
382.136495 6.0
389.192974 6.0
457.226145 8.0
498.27429 6.0
513.217189 5.0
528.250207 7.0
541.255335 15.0
549.300504 31.0
639.413953 3.0
657.305861 27.0
661.3708 3.0
665.37501 6.0
667.38539 6.0
668.34999 37.0
670.316659 5.0
685.287367 4.0
690.299687 3.0
705.365795 3.0
738.400881 4.0
767.402957 14.0
768.404657 7.0
780.396666 5.0
784.399965 14.0
798.416194 10.0
799.424063 16.0
809.412472 54.0
826.39568 10.0
826.4182 15.0
827.42107 348.0
845.439748 6.0
909.37779 17.0

