>compound 
>formula C40H44O17
>parentmass 814.2916709508099
>ionization [M + H3N + H]+
>instrumentation Unknown (LCMS)
>source file:/Users/fanzhoukong/Documents/GitHub/Libgen/data/EAD_PFP/0_unknown_/spectrum.ms
>quality UNKNOWN

>ms2peaks
68.998453 11.0
126.049422 33.0
127.053362 158.0
128.063503 382.0
130.061154 90.0
131.056225 46.0
132.075376 58.0
133.100736 69.0
135.120058 25.0
139.05411 163.0
140.055141 16.0
141.065572 208.0
142.071462 82.0
143.075063 101.0
143.085613 111.0
144.082204 81.0
145.091704 24.0
147.041656 21.0
164.064617 24.0
165.071218 448.0
166.074608 129.0
167.073439 164.0
167.083569 119.0
168.07144 72.0
169.07241 42.0
169.0979 101.0
170.096811 25.0
170.105751 48.0
172.112472 53.0
173.097033 28.0
174.049514 24.0
175.055144 22.0
176.059785 78.0
176.062375 183.0
177.067296 57.0
178.080296 341.0
179.084387 119.0
180.086028 75.0
181.069388 90.0
182.087129 119.0
182.196869 68.0
183.03486 33.0
183.04413 56.0
184.11127 38.0
185.058901 57.0
187.057902 42.0
188.150113 58.0
189.068974 242.0
190.075184 118.0
191.000105 102.0
192.003276 29.0
192.092876 49.0
192.977776 148.0
193.097546 33.0
194.093917 101.0
195.090128 60.0
195.113388 36.0
197.057169 39.0
198.12712 26.0
199.07417 182.0
200.060901 30.0
201.068102 58.0
202.075063 101.0
203.105473 75.0
203.144563 222.0
204.104904 74.0
205.064735 63.0
205.160135 58.0
207.029146 169.0
208.032537 75.0
209.031267 28.0
210.066478 19.0
213.07156 61.0
215.085381 147.0
216.090782 53.0
217.114443 26.0
218.075393 29.0
219.080514 65.0
219.096484 25.0
220.090865 36.0
221.059825 28.0
222.061586 24.0
223.084627 45.0
225.043708 33.0
226.063269 30.0
227.068899 35.0
228.0812 21.0
228.09304 79.0
229.089821 33.0
230.106621 58.0
231.118212 38.0
232.099193 29.0
233.107693 39.0
235.075635 67.0
238.060447 25.0
239.074217 105.0
240.079508 38.0
241.089959 229.0
244.106471 25.0
247.077093 52.0
249.008714 37.0
249.073644 54.0
250.064095 27.0
251.005295 45.0
253.086207 128.0
254.093957 18.0
255.072428 35.0
257.080539 44.0
259.082351 47.0
262.064743 18.0
263.074323 138.0
264.082654 42.0
265.019545 56.0
265.083325 67.0
266.079515 23.0
267.002336 66.0
268.003737 33.0
268.979687 22.0
270.089398 105.0
271.094929 64.0
273.07439 20.0
275.065911 20.0
276.080682 38.0
277.094043 47.0
279.095234 60.0
281.055995 222.0
282.055416 63.0
286.084039 49.0
289.084291 28.0
292.071713 24.0
293.085484 30.0
295.098055 108.0
297.080386 21.0
301.085369 18.0
305.077802 17.0
306.086432 44.0
311.090686 42.0
315.049548 12.0
316.104139 14.0
319.101731 31.0
321.075182 34.0
325.063345 16.0
329.106318 34.0
335.095702 37.0
343.097787 23.0
345.074838 31.0
347.08863 36.0
353.120894 20.0
360.098739 33.0
363.086661 15.0
373.109737 42.0
375.137199 12.0
381.107143 22.0
383.092894 25.0
385.106845 49.0
387.104927 25.0
387.124207 33.0
390.134929 51.0
391.122349 32.0
391.137859 120.0
393.110691 21.0
396.103613 120.0
397.106393 82.0
399.119645 27.0
401.102646 24.0
403.116167 67.0
404.127758 38.0
406.127119 75.0
407.12273 72.0
409.103721 68.0
411.119313 81.0
415.119435 109.0
416.123986 36.0
417.133787 18.0
421.136869 34.0
423.129451 32.0
426.108943 29.0
427.120633 95.0
429.131385 21.0
433.132358 35.0
434.129888 42.0
439.116282 70.0
440.126842 62.0
442.091714 12.0
444.124955 22.0
445.130906 54.0
451.10948 22.0
452.12334 38.0
455.146622 25.0
457.127954 29.0
458.140154 27.0
463.118828 20.0
465.132199 15.0
469.131712 87.0
472.130344 12.0
476.134156 11.0
479.150758 32.0
481.13203 34.0
483.143231 35.0
483.160441 23.0
493.133768 61.0
494.132798 22.0
497.15776 21.0
499.134292 17.0
501.132283 23.0
503.147454 71.0
506.155786 43.0
511.13565 44.0
511.14672 89.0
517.150814 38.0
518.156005 52.0
520.004026 12.0
521.161807 88.0
523.163028 20.0
525.215279 12.0
528.137881 28.0
529.149182 71.0
535.167126 83.0
536.164747 49.0
539.169939 81.0
545.164383 98.0
547.156144 47.0
549.179095 36.0
551.152857 12.0
553.162438 28.0
554.178979 136.0
561.100373 12.0
563.174465 70.0
565.166226 61.0
567.170807 22.0
568.190828 12.0
582.164837 12.0
585.1729 12.0
587.177051 53.0
591.157524 12.0
599.189939 44.0
600.16625 12.0
602.171871 24.0
605.178103 58.0
613.181158 12.0
617.204841 150.0
623.181895 62.0
629.204909 12.0
634.180862 12.0
635.212483 69.0
637.191674 12.0
639.203696 13.0
641.206447 107.0
647.186181 25.0
651.127224 12.0
653.166105 11.0
655.190586 12.0
656.214017 131.0
659.213779 237.0
661.998511 11.0
665.198343 51.0
667.193335 18.0
667.208475 47.0
671.212507 12.0
674.205609 118.0
674.213239 337.0
677.233381 50.0
685.200367 15.0
685.226007 59.0
743.243196 32.0
749.81418 12.0
761.244488 45.0
779.24242 568.0
779.26702 635.0
797.243172 340.0
797.265322 984.0

