>compound 
>formula C15H22O4
>parentmass 267.15909018734004
>ionization [M + H]+
>instrumentation Unknown (LCMS)
>source file:/Users/fanzhoukong/Documents/GitHub/Libgen/data/EAD_PFP/0_unknown_/spectrum.ms
>quality UNKNOWN

>ms2peaks
50.016768 124.0
51.023589 341.0
52.01713 36.0
53.038802 333.0
54.842464 14.0
55.047964 363.0
55.053784 2434.0
57.069317 3061.0
59.05106 571.0
60.048921 15.0
61.008452 13.0
61.029112 20.0
63.020315 41.0
65.034788 124.0
65.037948 601.0
66.046749 39.0
66.83006 31.0
67.05529 5319.0
67.882471 16.0
68.843903 18.0
69.070043 2960.0
71.049386 1063.0
73.040768 88.0
73.048308 100.0
73.065048 92.0
74.01686 29.0
75.035921 22.0
77.039894 2341.0
78.039665 49.0
79.050246 507.0
79.055466 3774.0
80.060308 17.0
81.071489 6098.0
81.74677 18.0
83.039672 495.0
83.049492 835.0
83.055742 1431.0
83.063782 955.0
83.684553 16.0
85.032374 52.0
85.060374 213.0
85.065794 364.0
87.045037 354.0
89.03225 66.0
89.03872 59.0
90.047281 23.0
90.744892 49.0
91.061522 5486.0
92.059814 65.0
92.760455 34.0
93.072065 4950.0
93.725316 31.0
94.077497 24.0
95.088328 7069.0
96.66622 17.0
97.066341 1181.0
97.080821 394.0
99.043273 257.0
99.055953 212.0
99.081303 70.0
101.024386 454.0
101.436376 38.0
102.048017 51.0
103.053939 365.0
104.0608 72.0
104.07579 40.0
104.724401 24.0
105.073561 6595.0
106.076093 47.0
106.535653 34.0
106.745063 19.0
107.085404 3830.0
108.068945 29.0
108.089315 30.0
108.095425 43.0
109.094837 1667.0
109.103027 4908.0
111.042419 95.0
111.059969 125.0
111.078549 373.0
113.053052 36.0
113.062432 271.0
114.037413 17.0
114.681684 23.0
115.057555 5632.0
116.064306 1237.0
116.655017 28.0
116.679347 28.0
116.694167 53.0
116.710037 39.0
117.072257 12047.0
117.949418 42.0
118.026029 27.0
118.078189 76.0
118.323149 13.0
118.505429 21.0
118.686789 35.0
118.74657 21.0
118.84159 47.0
119.09055 11488.0
119.978441 47.0
120.078251 31.0
120.094351 66.0
120.585462 41.0
120.662932 18.0
121.094823 2631.0
121.101293 6628.0
122.042084 36.0
122.073464 25.0
122.098364 25.0
122.110274 26.0
122.352874 16.0
123.043005 26.0
123.081045 596.0
125.056028 44.0
125.091088 164.0
125.098758 508.0
126.047219 207.0
127.045631 55.0
127.055571 602.0
127.647011 31.0
128.064622 3466.0
129.058733 21.0
129.070963 4447.0
130.080145 377.0
130.140485 20.0
131.087646 6812.0
131.623207 162.0
132.088897 33.0
132.090027 61.0
132.668228 17.0
133.102999 6040.0
133.636979 17.0
134.11304 99.0
134.553581 23.0
134.697931 14.0
135.079081 42.0
135.091601 461.0
135.098431 634.0
135.115521 584.0
136.094293 34.0
137.083474 435.0
137.096094 375.0
139.039087 20.0
139.055267 38.0
139.065667 81.0
139.072597 183.0
139.077227 140.0
140.044708 16.0
141.071399 795.0
142.080811 1021.0
142.625471 27.0
142.650042 21.0
143.089142 9094.0
144.093963 455.0
145.104685 7869.0
146.079856 35.0
146.091696 116.0
146.107096 260.0
146.603657 23.0
146.638057 23.0
147.107007 12071.0
147.842198 15.0
148.069799 27.0
148.090069 93.0
148.127029 61.0
148.536249 22.0
148.86596 19.0
149.06443 155.0
149.0764 321.0
149.08836 780.0
149.09674 837.0
149.1063 445.0
149.12065 381.0
149.1374 125.0
149.585161 16.0
150.044401 24.0
150.098401 39.0
150.105601 49.0
151.076953 126.0
151.092593 260.0
151.109453 360.0
152.065904 197.0
152.513195 17.0
153.071425 399.0
153.089605 54.0
154.079047 212.0
155.066788 72.0
155.086308 1335.0
156.096849 904.0
157.105761 7496.0
157.687092 26.0
158.079752 62.0
158.096992 79.0
158.110542 306.0
158.470433 17.0
158.592543 35.0
159.120994 11784.0
160.087565 144.0
160.099955 115.0
160.124755 101.0
160.573805 25.0
160.807266 17.0
161.122956 6544.0
161.716637 47.0
161.901057 31.0
162.050667 23.0
162.081848 46.0
162.104288 110.0
162.221558 16.0
163.083619 106.0
163.089869 251.0
163.109889 293.0
163.59193 18.0
165.092652 1500.0
166.079683 38.0
166.099883 20.0
167.083574 130.0
167.100044 32.0
168.084156 35.0
168.091786 147.0
169.087727 111.0
169.097927 89.0
169.101737 322.0
170.112158 1750.0
171.07435 62.0
171.09741 493.0
171.10766 408.0
171.11535 367.0
172.102201 49.0
172.122771 108.0
172.133051 46.0
172.588332 33.0
173.134432 8471.0
173.930643 14.0
174.112864 77.0
174.128384 51.0
174.140014 177.0
174.544874 43.0
174.561694 21.0
174.578524 44.0
175.142025 5599.0
175.145925 15026.0
176.088406 54.0
176.109206 55.0
176.124806 70.0
176.153416 57.0
176.279547 26.0
176.827547 18.0
177.090778 80.0
177.122078 163.0
177.128588 428.0
177.377708 16.0
177.633498 18.0
178.084229 58.0
178.177069 15.0
178.353639 27.0
179.08046 39.0
179.11194 243.0
179.12636 64.0
179.682701 20.0
180.087382 52.0
180.096562 61.0
180.105782 22.0
180.418812 23.0
180.983743 26.0
181.087873 59.0
183.103806 54.0
183.118386 423.0
184.088707 36.0
184.289457 13.0
184.526258 30.0
184.562188 37.0
185.134898 9463.0
186.10387 25.0
186.12257 23.0
186.30838 20.0
186.35786 35.0
187.111531 135.0
187.127591 186.0
187.131621 342.0
187.154401 94.0
188.089662 54.0
188.111162 32.0
188.121902 65.0
189.098634 323.0
189.109424 395.0
189.128284 66.0
190.098185 138.0
191.123356 61.0
191.146386 234.0
192.662228 19.0
193.141139 71.0
193.153409 146.0
193.161549 541.0
193.62612 34.0
195.120262 128.0
197.062694 15.0
198.096836 27.0
198.109236 62.0
200.120498 23.0
201.12787 110.0
201.13343 49.0
202.466592 45.0
202.473562 28.0
202.491672 20.0
202.500052 29.0
203.147392 17637.0
203.949644 24.0
204.068564 24.0
204.134344 26.0
204.230934 27.0
204.384954 35.0
204.616094 19.0
204.733825 19.0
205.127895 722.0
205.334195 36.0
205.518126 20.0
205.886246 18.0
206.129486 37.0
206.444657 18.0
207.105318 1178.0
208.113109 53.0
209.13756 15.0
210.182952 15.0
213.130236 661.0
215.076808 46.0
218.126082 13.0
219.082014 28.0
219.140014 40.0
221.157467 1269.0
223.106619 12.0
228.987557 31.0
230.131929 18.0
231.14059 952.0
232.584532 16.0
234.749865 17.0
239.812492 19.0
242.114775 15.0
248.150013 20.0
249.109264 24.0
249.146374 49.0
249.166464 24.0
251.104687 33.0
251.124877 90.0
251.134177 101.0
253.055079 216.0
256.046573 41.0
264.265794 21.0
267.132068 45.0
267.160878 34.0

