>compound 
>formula C13H12O6
>parentmass 265.07066910418007
>ionization [M + H]+
>instrumentation Unknown (LCMS)
>source file:/Users/fanzhoukong/Documents/GitHub/Libgen/data/EAD_PFP/0_unknown_/spectrum.ms
>quality UNKNOWN

>ms2peaks
50.015275 180.0
51.022796 474.0
52.030457 115.0
53.038698 1372.0
54.009819 5.0
54.045819 27.0
55.01735 919.0
55.93377 18.0
56.025391 20.0
57.034451 420.0
58.005492 88.0
59.050213 73.0
59.928944 7.0
60.983115 21.0
62.014076 18.0
63.022567 119.0
64.032128 37.0
65.040238 1904.0
66.045869 138.0
67.01911 1188.0
68.025321 45.0
68.998342 1984.0
70.044663 35.0
71.050134 1434.0
72.937755 6.0
74.015106 15.0
75.020577 21.0
76.029408 34.0
77.038969 1245.0
78.04479 184.0
79.053661 370.0
80.027811 9.0
80.049721 22.0
81.033502 1150.0
82.041923 95.0
83.013734 48.0
83.047654 8.0
85.029606 3545.0
86.013447 9.0
87.008427 1348.0
89.037739 87.0
90.03514 6.0
90.04816 17.0
91.055861 968.0
92.050372 28.0
92.056012 61.0
93.037053 25.0
94.045144 48.0
94.052744 31.0
94.062244 22.0
95.051984 495.0
95.950925 9.0
96.056505 15.0
97.029626 1222.0
98.035787 169.0
99.045188 1788.0
101.03715 9.0
102.049961 31.0
103.054901 84.0
104.053772 14.0
105.033363 66.0
105.069513 52.0
106.039744 25.0
106.062944 6.0
106.066984 16.0
107.048885 56.0
108.022076 11.0
109.028317 1607.0
110.037167 32.0
111.044458 918.0
112.002429 5.0
112.052199 13.0
113.002 8.0
113.02179 10.0
113.03949 11.0
114.045761 12.0
115.054392 195.0
116.053743 19.0
117.060584 42.0
118.045174 6.0
118.061144 12.0
118.069654 13.0
119.049915 27.0
119.062745 21.0
119.083055 15.0
120.056776 7.0
120.081466 8.0
121.031227 35.0
121.045237 6.0
121.062477 15.0
121.100207 10.0
122.038828 24.0
123.045179 207.0
124.05129 60.0
125.02645 9.0
125.06151 7.0
126.032921 75.0
126.616472 33.0
126.627492 101.0
127.045632 9493.0
128.063503 101.0
129.058734 5.0
130.061155 6.0
131.047276 7.0
133.027297 12.0
134.034788 9.0
136.01432 5.0
137.023851 620.0
139.043743 4203.0
141.925575 5.0
146.069229 6.0
147.04407 9.0
147.96255 7.0
149.059681 8.0
150.032422 98.0
151.037253 654.0
152.051444 216.0
153.060555 58.0
154.065706 16.0
155.070487 11.0
157.082478 8.0
158.073629 5.0
159.04566 5.0
159.11239 9.0
161.023522 60.0
161.045912 8.0
162.028273 11.0
163.001113 7.0
163.038633 17.0
165.053675 20.0
165.070055 58.0
166.063326 14.0
167.076047 18.0
168.076598 11.0
169.076309 5.0
169.542849 6.0
173.094552 14.0
173.129342 7.0
175.037084 40.0
175.073384 11.0
176.045575 10.0
176.062475 6.0
177.056956 93.0
178.028106 10.0
178.084297 10.0
179.033347 1338.0
180.042748 22.0
180.072998 11.0
181.049729 163.0
182.0965 8.0
182.902451 8.0
183.069431 10.0
183.090641 7.0
184.108722 6.0
185.039023 5.0
186.127994 6.0
187.146454 6.0
189.052936 21.0
189.067756 5.0
190.063147 24.0
190.998858 15.0
191.032718 7.0
191.062508 6.0
191.076038 8.0
192.977899 9.0
193.05139 67.0
194.05584 23.0
195.105311 8.0
201.059906 13.0
202.077987 8.0
203.034428 199.0
205.01438 40.0
205.0831 6.0
207.029302 55.0
208.032693 6.0
210.984845 5.0
211.094435 9.0
215.076929 6.0
217.04822 10.0
218.056761 10.0
219.064742 6.0
221.045444 165.0
223.023346 6.0
225.045357 6.0
231.024592 7.0
233.151254 6.0
236.065167 12.0
245.045835 9.0
247.063436 9.0
247.109646 6.0
248.988838 6.0
251.982691 6.0
254.095763 6.0
261.108019 6.0
264.059011 5.0
265.051692 17.0
265.069242 381.0

