>compound 
>formula C10H10O5
>parentmass 211.06010442015
>ionization [M + H]+
>instrumentation Unknown (LCMS)
>source file:/Users/fanzhoukong/Documents/GitHub/Libgen/data/EAD_PFP/0_unknown_/spectrum.ms
>quality UNKNOWN

>ms2peaks
50.014362 211.0
51.021863 701.0
52.028814 70.0
53.037755 231.0
54.038386 18.0
55.052727 461.0
56.053028 72.0
57.053449 104.0
58.0366 21.0
59.049221 189.0
60.052382 89.0
60.982113 43.0
61.005833 32.0
62.013834 44.0
63.023095 358.0
64.027177 59.0
65.039198 1067.0
66.044829 114.0
67.05255 329.0
68.021841 31.0
68.995652 142.0
69.070532 41.0
71.047394 13.0
71.085384 21.0
74.015687 62.0
75.022008 50.0
76.029999 163.0
77.039561 1513.0
78.043662 297.0
79.053393 432.0
80.049454 78.0
81.067625 274.0
82.068276 30.0
83.048267 32.0
83.085767 45.0
84.078988 22.0
85.028429 13.0
85.052819 43.0
86.00954 15.0
87.020941 18.0
88.018962 25.0
89.038383 204.0
90.043224 73.0
91.056516 1659.0
92.054787 275.0
93.064168 163.0
94.066709 96.0
95.06889 54.0
95.08226 179.0
95.949671 29.0
97.065052 35.0
97.097862 25.0
98.100493 21.0
98.981534 30.0
100.102585 27.0
101.036846 21.0
102.044717 83.0
103.052618 178.0
104.056469 41.0
105.039091 113.0
105.048131 371.0
106.064662 115.0
107.076963 73.0
108.059454 48.0
109.064835 32.0
109.082235 100.0
111.001837 39.0
112.999609 22.0
115.047771 81.0
115.054081 521.0
116.052372 84.0
117.068753 172.0
118.065085 66.0
119.076326 87.0
120.078997 39.0
121.089108 24.0
123.08072 39.0
124.108801 10.0
126.046893 60.0
127.056344 99.0
128.062065 341.0
129.059516 34.0
129.067316 91.0
130.065297 125.0
130.989758 50.0
131.070508 24.0
131.073858 39.0
132.018779 19.0
132.07505 24.0
133.086861 50.0
134.097972 24.0
135.079893 29.0
136.114534 18.0
137.099215 22.0
139.051467 34.0
140.050178 34.0
140.058288 31.0
141.067589 180.0
141.9264 12.0
142.06647 44.0
142.07815 61.0
144.079532 34.0
145.089034 39.0
145.965894 42.0
146.086655 35.0
147.099556 50.0
147.963407 35.0
148.095697 22.0
149.058138 96.0
150.048869 32.0
151.04771 23.0
152.055921 81.0
153.065032 19.0
153.069892 77.0
154.067783 83.0
155.073784 28.0
156.081835 39.0
157.063716 39.0
157.104226 28.0
158.096667 44.0
159.092269 29.0
161.105221 40.0
162.055342 18.0
162.993243 14.0
164.045504 16.0
165.069675 112.0
166.070526 52.0
167.076937 44.0
168.054648 21.0
168.071158 45.0
168.076218 51.0
169.075949 29.0
169.097599 34.0
170.09395 36.0
171.094531 19.0
174.103515 15.0
175.108016 28.0
175.137826 31.0
176.060807 44.0
176.146607 27.0
177.076128 27.0
178.076079 144.0
179.06836 22.0
180.085751 42.0
181.082282 39.0
181.871443 19.0
182.074973 44.0
182.189993 51.0
183.092904 22.0
184.112325 32.0
185.099936 14.0
186.124928 16.0
189.072751 61.0
189.101021 33.0
190.077602 34.0
191.001183 114.0
191.082423 33.0
192.079024 21.0
192.977495 52.0
192.981585 91.0
193.980396 16.0
194.077276 29.0
194.095016 42.0
195.067967 22.0
195.095327 23.0
196.114668 16.0
197.088539 26.0
198.12822 23.0
200.056462 13.0
202.076185 37.0
203.081476 14.0
203.142906 53.0
205.075678 26.0
205.158458 24.0
207.0303 158.0
208.030871 35.0
209.023932 28.0
211.102544 63.0
211.109654 89.0
211.219274 20.0

