>compound 
>formula C35H46O20
>parentmass 809.2474648739801
>ionization [M + Na]+
>instrumentation Unknown (LCMS)
>source file:/Users/fanzhoukong/Documents/GitHub/Libgen/data/EAD_PFP/0_unknown_/spectrum.ms
>quality UNKNOWN

>ms2peaks
50.016053 179.0
51.02356 314.0
52.031227 77.0
53.040175 85.0
54.033612 12.0
54.041532 7.0
55.055159 264.0
55.934517 12.0
56.051067 13.0
57.069224 14.0
57.934621 18.0
58.041291 5.0
60.983833 29.0
62.014011 25.0
63.021708 185.0
64.021855 14.0
64.028905 15.0
65.038552 868.0
66.04416 82.0
67.053477 220.0
68.023574 10.0
68.039734 19.0
68.994122 160.0
70.064999 5.0
73.007021 7.0
74.015738 34.0
75.021206 32.0
76.030893 104.0
77.03872 684.0
78.035017 17.0
78.043677 145.0
79.054265 340.0
80.052952 73.0
81.066729 15.0
81.070259 115.0
82.067357 7.0
82.074457 21.0
83.086624 17.0
84.018771 90.0
85.050949 24.0
86.012196 5.0
87.020863 8.0
88.030821 11.0
89.040138 234.0
90.044055 21.0
91.056393 1181.0
92.05748 137.0
93.060257 17.0
93.063097 39.0
93.072547 24.0
94.065614 49.0
95.010482 11.0
96.078139 9.0
97.025306 17.0
98.097404 13.0
100.014188 5.0
101.039596 10.0
102.047463 101.0
103.05338 160.0
104.048238 18.0
104.054238 27.0
104.059238 10.0
105.069965 133.0
106.060372 10.0
106.066422 32.0
107.080749 13.0
108.079547 9.0
109.072734 7.0
109.099344 8.0
110.999469 33.0
112.005956 10.0
113.001374 44.0
114.034661 7.0
114.048261 5.0
115.053738 457.0
116.060465 42.0
117.059913 63.0
118.06897 37.0
119.077017 11.0
120.075395 9.0
120.080755 26.0
123.990544 8.0
125.020221 18.0
126.047559 27.0
126.903566 10.0
127.053696 78.0
128.061613 309.0
129.06573 41.0
130.065938 77.0
130.991515 23.0
131.072255 36.0
132.012662 5.0
132.018292 29.0
132.082462 15.0
133.0197 10.0
133.09991 5.0
134.096327 10.0
135.042944 37.0
135.099864 6.0
136.108301 10.0
139.052094 20.0
139.054394 64.0
141.067008 114.0
141.925816 15.0
142.064735 16.0
142.072915 36.0
142.989813 6.0
143.073003 30.0
144.08012 38.0
145.075447 8.0
145.081337 7.0
145.967665 18.0
146.096685 15.0
147.100122 11.0
147.96753 17.0
150.041034 12.0
151.051871 39.0
152.062489 104.0
153.066796 59.0
154.067093 30.0
155.060901 15.0
155.084081 14.0
156.041988 35.0
156.061568 6.0
157.048255 30.0
157.071585 10.0
157.103515 12.0
158.097192 27.0
160.112537 8.0
161.101984 6.0
163.041269 79.0
163.055029 28.0
164.052266 25.0
164.062306 22.0
165.070164 209.0
166.071011 63.0
167.074868 59.0
168.063996 10.0
168.076706 48.0
169.067493 23.0
169.080243 8.0
169.087883 8.0
170.06888 6.0
170.09314 9.0
171.105247 6.0
172.088215 6.0
172.112625 12.0
174.125929 14.0
176.059944 20.0
177.057011 7.0
178.076509 91.0
178.966546 5.0
179.060906 6.0
179.079286 31.0
179.084516 34.0
180.082223 45.0
180.987801 7.0
181.080051 22.0
181.101161 14.0
182.095208 13.0
183.034975 14.0
183.081365 7.0
184.036953 10.0
185.04036 35.0
186.050487 40.0
187.059345 11.0
188.066902 8.0
188.146172 13.0
189.069079 67.0
190.072587 25.0
191.002914 37.0
191.076014 9.0
192.083461 12.0
192.979219 52.0
193.104438 6.0
193.982106 8.0
194.095366 24.0
195.090213 9.0
195.114833 9.0
196.08758 6.0
196.11227 9.0
197.105368 9.0
197.130138 6.0
200.06233 7.0
201.069547 13.0
201.098727 5.0
202.031944 6.0
202.050044 10.0
202.076504 34.0
203.051062 7.0
203.085972 9.0
204.081169 17.0
205.046526 40.0
205.078796 15.0
206.094334 8.0
207.034821 83.0
208.031158 15.0
209.015706 7.0
209.027046 17.0
210.98612 6.0
211.12132 7.0
211.984768 6.0
212.994365 9.0
213.068705 15.0
215.085379 18.0
216.086477 10.0
217.088454 12.0
218.097091 12.0
219.063109 9.0
219.086319 9.0
220.117016 7.0
221.120993 5.0
222.1258 8.0
223.121168 5.0
223.135818 6.0
225.040723 12.0
226.08237 15.0
227.088047 14.0
228.094474 17.0
230.109539 8.0
232.099124 10.0
233.107621 5.0
234.971936 7.0
237.07591 13.0
239.086265 9.0
243.089634 6.0
244.055872 6.0
244.117081 8.0
245.050109 9.0
245.062379 31.0
246.221576 7.0
248.985408 18.0
250.966353 9.0
250.984983 5.0
251.003623 7.0
252.09743 6.0
253.982965 8.0
255.059772 10.0
257.044267 6.0
259.056991 16.0
260.062329 6.0
265.020965 26.0
266.020223 8.0
266.99895 28.0
273.054754 8.0
275.075438 9.0
277.066093 6.0
279.093367 7.0
281.052472 83.0
282.043649 8.0
282.053509 23.0
282.076549 5.0
283.051397 15.0
285.072301 12.0
291.086165 7.0
301.068048 8.0
303.077103 11.0
303.095873 16.0
305.103128 9.0
313.071826 6.0
317.065925 21.0
318.071473 20.0
319.07685 24.0
321.092345 12.0
329.066813 29.0
330.064491 6.0
331.081518 5.0
331.102908 135.0
333.118432 8.0
337.092332 6.0
345.05618 12.0
346.068688 7.0
347.093615 276.0
348.090802 17.0
348.101792 23.0
349.109599 190.0
361.095287 8.0
363.067452 9.0
365.089936 6.0
367.099241 6.0
375.10056 6.0
389.084322 10.0
389.105592 47.0
390.118799 12.0
391.121726 194.0
401.14318 6.0
419.118141 17.0
421.134096 9.0
423.132721 6.0
437.134693 7.0
447.122646 5.0
447.135066 16.0
447.147486 44.0
449.125871 10.0
451.131515 9.0
453.11451 7.0
463.113693 10.0
465.116488 20.0
465.129158 18.0
466.143835 9.0
467.129942 111.0
471.125262 10.0
477.136235 7.0
477.151215 20.0
479.13693 10.0
481.107415 17.0
482.098472 6.0
482.119982 45.0
483.122879 347.0
484.133257 53.0
485.146834 35.0
485.170574 7.0
491.122588 9.0
492.126065 10.0
493.130612 23.0
495.151417 8.0
498.105139 18.0
498.111699 34.0
499.120126 239.0
500.129554 164.0
501.140011 349.0
502.140528 7.0
503.144226 9.0
505.126 8.0
507.140335 7.0
509.12556 6.0
511.121284 8.0
512.151641 6.0
513.158599 11.0
521.122687 6.0
524.132569 6.0
525.131037 10.0
525.153496 7.0
527.108391 18.0
528.123218 102.0
529.134506 286.0
530.142253 8.0
531.14195 6.0
535.474209 6.0
537.118984 6.0
541.163223 6.0
543.145398 11.0
548.218685 3.0
550.489488 7.0
554.136209 17.0
555.155926 126.0
556.139623 5.0
556.160433 9.0
557.16355 66.0
558.181428 6.0
566.138866 8.0
567.148564 6.0
569.130978 9.0
569.147338 8.0
570.129336 23.0
571.147273 25.0
573.160088 9.0
584.157738 10.0
585.164445 55.0
586.186233 12.0
587.17097 10.0
587.19704 37.0
597.180713 8.0
598.18419 10.0
599.190898 10.0
600.169655 9.0
601.175632 29.0
601.197242 8.0
609.157121 6.0
611.158275 7.0
611.184885 21.0
612.180673 8.0
613.15302 11.0
613.17969 10.0
615.187435 29.0
625.177528 23.0
626.162565 6.0
627.177822 45.0
627.187592 117.0
628.17916 142.0
628.19632 119.0
629.188687 343.0
630.196554 52.0
631.175682 8.0
631.202782 14.0
639.18725 20.0
643.183459 39.0
644.172587 29.0
644.192487 25.0
645.197364 195.0
646.205541 153.0
647.197059 185.0
649.197293 6.0
653.169513 6.0
655.168897 14.0
655.191477 56.0
656.192394 24.0
657.199042 11.0
659.189516 14.0
669.17698 9.0
670.175757 15.0
671.185454 107.0
672.178192 31.0
673.179229 48.0
673.199549 25.0
674.170866 84.0
674.183556 151.0
675.198813 530.0
676.202111 11.0
677.139908 6.0
685.183287 18.0
686.204214 12.0
687.195121 7.0
688.202139 12.0
689.212506 71.0
691.19163 6.0
699.227129 6.0
703.188238 22.0
704.191286 28.0
705.148253 8.0
705.202883 37.0
706.20483 7.0
716.194853 6.0
717.196691 11.0
719.212915 12.0
720.222132 9.0
721.18203 6.0
732.16216 6.0
733.177728 8.0
733.201588 9.0
734.186025 7.0
735.221602 8.0
749.219555 13.0
750.211982 12.0
751.215819 10.0
759.214028 8.0
761.237092 17.0
762.14011 6.0
762.1807 15.0
762.22934 11.0
763.211457 18.0
763.249357 9.0
764.199554 7.0
764.218534 15.0
764.248314 14.0
764.288964 8.0
765.188322 8.0
765.210042 30.0
765.223592 35.0
772.203803 6.0
775.214785 6.0
776.216122 12.0
777.223559 41.0
778.231617 51.0
779.237654 69.0
780.252491 14.0
781.235149 14.0
781.237899 48.0
789.223347 18.0
790.239154 20.0
791.197772 11.0
791.236342 101.0
792.231459 8.0
805.204814 12.0
805.215924 34.0
805.577313 5.0
806.228061 284.0
807.235329 2033.0
808.212556 9.0
808.243196 5113.0
809.234953 2776.0
809.243313 7965.0

