>compound 
>formula C11H14O4
>parentmass 228.1230299295
>ionization [M + H3N + H]+
>instrumentation Unknown (LCMS)
>source file:/Users/fanzhoukong/Documents/GitHub/Libgen/data/EAD_PFP/0_unknown_/spectrum.ms
>quality UNKNOWN

>ms2peaks
50.013976 67.0
51.022187 374.0
52.024908 27.0
52.026318 40.0
53.038099 82.0
54.032969 39.0
55.05235 191.0
55.932431 13.0
56.049711 15.0
56.963571 16.0
57.068612 53.0
58.063092 7.0
60.984035 35.0
62.015005 31.0
63.022726 156.0
64.028377 23.0
65.038828 836.0
66.042068 50.0
67.052979 248.0
68.04248 11.0
68.05137 28.0
68.995281 112.0
70.028471 21.0
70.063721 9.0
71.047032 5.0
72.935464 24.0
73.045934 11.0
74.013644 37.0
75.020795 31.0
76.028786 35.0
77.038337 1132.0
78.044167 186.0
79.053038 328.0
80.050849 84.0
81.06815 110.0
82.0546 11.0
82.06437 10.0
82.07058 6.0
83.083631 19.0
84.082232 6.0
85.048853 18.0
86.013723 17.0
87.022414 16.0
88.033315 16.0
89.037106 210.0
90.042876 46.0
91.054287 1246.0
92.056318 128.0
93.068549 49.0
94.06541 41.0
95.05994 19.0
95.08478 9.0
95.951241 18.0
96.043391 8.0
96.090431 11.0
97.945932 6.0
98.094323 9.0
99.991514 9.0
101.039465 8.0
102.045366 53.0
103.052276 105.0
104.049137 26.0
105.069878 94.0
106.067349 53.0
107.077639 25.0
107.084729 5.0
108.08253 9.0
109.062451 8.0
109.095191 8.0
110.997362 9.0
111.001492 22.0
112.005933 6.0
112.998234 23.0
114.031515 7.0
115.053745 463.0
116.042536 6.0
116.056256 42.0
117.062057 96.0
118.064748 43.0
118.948818 5.0
119.078128 18.0
120.079739 36.0
121.06937 16.0
121.08554 15.0
121.10063 14.0
122.094451 12.0
123.083641 5.0
124.040822 109.0
126.037764 6.0
126.044364 30.0
127.056024 81.0
128.061745 330.0
129.069206 80.0
130.004647 9.0
130.058267 32.0
130.066097 117.0
130.990557 13.0
131.067927 9.0
132.015078 17.0
132.065728 6.0
132.079228 13.0
133.074109 7.0
134.09425 12.0
135.114881 7.0
136.111931 12.0
139.053484 47.0
140.035944 7.0
140.060304 6.0
141.070755 71.0
142.049806 8.0
142.060316 12.0
143.076787 21.0
144.078047 12.0
145.081618 5.0
145.100508 14.0
145.966759 17.0
146.082769 9.0
146.096969 10.0
147.11588 16.0
147.96428 13.0
149.059011 16.0
150.047372 12.0
150.125372 11.0
150.919802 12.0
151.053423 45.0
152.061633 130.0
153.067144 109.0
154.069895 61.0
155.068596 34.0
155.083236 31.0
156.064406 10.0
156.079086 28.0
157.087947 26.0
158.080368 9.0
158.092668 24.0
159.074639 8.0
159.112939 8.0
160.073299 54.0
160.100569 12.0
161.09125 11.0
162.997942 17.0
163.052982 23.0
164.057742 35.0
165.070633 161.0
166.072744 37.0
167.074105 53.0
168.069565 38.0
168.082275 18.0
169.066736 15.0
169.090936 5.0
169.099846 13.0
170.091097 20.0
171.089098 7.0
171.116018 7.0
172.108029 14.0
172.118289 6.0
174.08769 6.0
174.11743 6.0
175.149191 12.0
176.060492 34.0
176.141092 9.0
177.056272 7.0
178.075783 52.0
179.083794 23.0
180.076245 21.0
180.944915 6.0
181.085955 17.0
182.075986 6.0
182.094496 8.0
183.040897 8.0
183.052827 6.0
183.074037 6.0
184.098738 5.0
184.109358 11.0
185.104968 6.0
186.115279 10.0
187.0533 10.0
188.058171 10.0
189.069771 65.0
190.069222 11.0
190.075962 27.0
190.992763 6.0
191.002253 25.0
191.083483 14.0
192.070584 9.0
192.082804 11.0
192.090954 9.0
192.982654 28.0
193.084744 8.0
193.981465 14.0
194.096075 20.0
194.981486 6.0
195.103246 10.0
196.097907 28.0
197.111627 5.0
198.125198 11.0
200.06172 10.0
200.14764 6.0
201.06199 6.0
202.077281 26.0
203.079792 6.0
203.142622 17.0
204.079183 26.0
205.079603 9.0
205.160983 10.0
206.095144 9.0
207.031425 86.0
208.032006 14.0
208.088516 10.0
208.112556 9.0
209.025056 14.0
210.146867 13.0
210.989828 13.0
211.095148 7.0
212.992379 5.0
213.069589 4.0
214.066 7.0
214.16061 5.0
215.083401 24.0
216.096022 12.0
217.089363 18.0
218.092223 8.0
219.107544 6.0
220.083065 7.0
223.084087 7.0
225.041709 18.0
227.08609 9.0
228.099921 24.0
228.133941 5.0
228.156151 9.0
228.233101 8.0

