>compound 
>formula C28H46O9
>parentmass 549.30340405871
>ionization [M + Na]+
>instrumentation Unknown (LCMS)
>source file:/Users/fanzhoukong/Documents/GitHub/Libgen/data/EAD_PFP/0_unknown_/spectrum.ms
>quality UNKNOWN

>ms2peaks
51.023155 441.0
52.030105 92.0
53.040475 112.0
55.052565 191.0
55.055475 176.0
57.934954 18.0
60.982654 21.0
62.015144 45.0
63.021304 141.0
64.027714 54.0
65.038943 687.0
66.013513 71.0
67.055473 462.0
68.993723 176.0
71.052033 12.0
74.017872 25.0
76.025362 72.0
76.031342 141.0
77.040042 1326.0
78.041552 251.0
79.055612 382.0
80.053432 157.0
81.068981 113.0
82.068741 74.0
86.014531 29.0
89.035131 61.0
89.039761 179.0
90.03809 26.0
91.05601 1501.0
92.05616 197.0
93.07027 126.0
94.06239 88.0
95.08746 141.0
96.08352 17.0
97.948639 17.0
99.014109 30.0
101.034299 23.0
102.048089 84.0
103.050039 168.0
105.066599 53.0
105.071619 251.0
107.085468 119.0
109.104098 14.0
111.000148 54.0
112.011828 36.0
113.001028 83.0
114.045817 20.0
115.052347 422.0
116.059067 67.0
117.070177 128.0
118.065437 55.0
119.075607 112.0
120.077207 34.0
121.086227 43.0
123.116926 53.0
125.022086 95.0
126.043926 41.0
127.057786 95.0
128.059086 210.0
129.069876 147.0
130.065625 78.0
131.070835 31.0
132.017975 32.0
132.076505 21.0
133.098485 42.0
134.108495 44.0
135.116635 30.0
136.114835 21.0
139.047164 15.0
139.055254 43.0
140.055134 57.0
141.070204 71.0
142.074954 48.0
143.073864 26.0
144.081004 39.0
145.103474 30.0
146.095234 80.0
147.120043 22.0
147.973223 23.0
149.060803 14.0
149.131373 38.0
150.047953 52.0
151.055223 92.0
152.062243 225.0
153.066523 47.0
154.065613 80.0
155.072832 92.0
155.085032 49.0
156.068642 39.0
157.084832 73.0
158.098172 47.0
159.117232 78.0
160.109812 16.0
160.955062 14.0
161.099252 23.0
161.132822 79.0
162.125422 31.0
164.058281 32.0
165.069931 152.0
166.064461 59.0
166.075821 33.0
167.073371 93.0
168.082801 58.0
169.074921 37.0
170.092921 32.0
170.099311 75.0
171.04864 28.0
171.09092 16.0
172.09056 28.0
173.12146 37.0
175.10952 16.0
175.15229 30.0
177.06591 13.0
178.07891 43.0
179.073819 62.0
180.078069 74.0
181.066679 22.0
182.102929 38.0
183.079839 25.0
184.034109 34.0
185.042829 119.0
187.148938 38.0
189.067548 54.0
189.164548 30.0
191.002728 49.0
191.085318 33.0
192.001828 14.0
192.080578 19.0
192.980398 44.0
195.110558 25.0
198.138057 41.0
199.145957 22.0
200.146707 15.0
201.037457 175.0
202.048497 252.0
203.053717 40.0
203.144467 38.0
204.083826 22.0
204.102016 23.0
205.105306 17.0
206.084346 23.0
207.033266 130.0
208.110156 22.0
209.059496 8.0
210.104696 20.0
211.099846 27.0
212.140145 19.0
213.094335 14.0
215.088145 19.0
218.098425 26.0
219.096345 19.0
221.101944 24.0
226.080814 23.0
227.139634 20.0
227.176544 26.0
229.098593 46.0
231.135963 28.0
232.137863 8.0
233.212253 19.0
234.115223 69.0
238.157062 10.0
239.178602 24.0
241.194792 19.0
242.985732 44.0
243.207222 48.0
243.210272 133.0
244.158392 10.0
246.123151 8.0
247.133911 31.0
248.990021 22.0
249.991151 20.0
250.981871 28.0
251.002051 13.0
252.131621 29.0
253.10631 8.0
255.21938 22.0
265.022579 43.0
266.020229 25.0
266.997379 24.0
267.207119 33.0
269.228608 51.0
270.221278 19.0
271.122188 11.0
273.223178 22.0
274.103148 8.0
281.049257 104.0
282.053587 19.0
283.046537 19.0
287.244896 32.0
293.169155 11.0
295.210655 42.0
297.220365 55.0
305.101554 8.0
309.175564 33.0
309.220334 63.0
310.194393 26.0
310.230613 46.0
311.147513 56.0
323.197162 17.0
324.154172 32.0
325.165582 501.0
326.173271 40.0
327.219721 37.0
330.221331 13.0
337.15371 21.0
337.16451 70.0
338.16537 18.0
339.17132 39.0
339.18575 23.0
341.20763 32.0
343.153829 38.0
343.228229 35.0
355.229758 90.0
359.219777 21.0
365.148277 8.0
367.244126 8.0
369.240526 1471.0
370.252066 252.0
371.251786 38.0
385.229664 55.0
385.235454 135.0
386.251324 25.0
387.255054 293.0
391.209303 24.0
400.272962 19.0
404.212232 10.0
405.231092 16.0
413.235211 15.0
415.242961 365.0
417.26158 23.0
418.23268 8.0
419.23698 24.0
422.1323 8.0
427.241859 14.0
427.262129 15.0
429.244759 91.0
429.260999 314.0
430.239849 13.0
431.232009 89.0
433.268718 19.0
438.330148 8.0
443.204417 13.0
443.247747 68.0
444.250647 43.0
445.256757 2509.0
446.268137 1708.0
447.278607 300.0
448.286076 14.0
455.275946 24.0
457.261755 90.0
458.265695 397.0
459.277075 189.0
459.293855 86.0
460.279025 41.0
461.239995 46.0
461.250525 251.0
467.253424 21.0
469.212104 8.0
473.243993 28.0
473.299413 25.0
475.245063 47.0
475.270693 212.0
476.277133 942.0
477.284613 27.0
486.270232 33.0
487.270942 46.0
488.270482 44.0
489.284061 575.0
490.305211 37.0
491.297031 8.0
501.28555 41.0
505.28092 103.0
506.263519 21.0
506.296569 26.0
507.302219 16.0
514.260708 8.0
517.279758 43.0
519.280238 29.0
519.295868 59.0
529.288667 8.0
531.278346 58.0
533.264916 16.0
534.276636 14.0
547.275054 10.0
547.293364 194.0
548.304534 176.0
549.302824 4064.0
549.314294 10621.0

