>compound 
>formula C27H30O13
>parentmass 580.20246202131
>ionization [M + H3N + H]+
>instrumentation Unknown (LCMS)
>source file:/Users/fanzhoukong/Documents/GitHub/Libgen/data/EAD_PFP/0_unknown_/spectrum.ms
>quality UNKNOWN

>ms2peaks
115.05585 3561.0
116.06258 241.0
117.07158 1187.0
118.04131 111.0
119.05031 83.0
119.06741 79.0
123.04882 121.0
125.04545 35.0
126.04869 174.0
127.05704 893.0
128.06499 236.0
129.06355 44.0
129.07468 58.0
130.0403 58.0
131.04988 381.0
139.05215 35.0
143.04964 619.0
144.05669 392.0
144.60042 61.0
145.06962 7414.0
146.04114 161.0
146.0731 84.0
147.0432 215.0
147.0527 298.0
147.06933 345.0
148.053449 32.0
149.063569 65.0
150.050729 157.0
151.044749 827.0
151.050779 442.0
152.061399 810.0
153.062059 311.0
153.069329 483.0
154.064769 1290.0
155.058579 532.0
156.056789 73.0
157.029969 158.0
157.065579 765.0
158.036969 159.0
159.047179 3780.0
160.053179 553.0
161.061099 966.0
163.055159 316.0
164.051149 157.0
165.067789 533.0
166.063579 128.0
167.073759 2054.0
168.075579 96.0
169.067659 236.0
170.035829 331.0
171.046459 3094.0
173.053539 830.0
173.063859 6919.0
174.066629 123.0
175.041209 1229.0
176.054899 205.0
177.070219 196.0
178.080609 413.0
179.065029 118.0
179.086009 153.0
180.057429 123.0
180.065319 73.0
180.087659 113.0
181.063109 825.0
183.047089 92.0
183.060349 118.0
184.058419 93.0
184.066409 321.0
184.075699 191.0
185.060549 929.0
186.054689 90.0
186.069399 239.0
187.039439 117.0
187.054179 142.0
188.046949 1422.0
189.062539 7465.0
190.061979 505.0
191.077569 979.0
192.055159 61.0
193.065179 96.0
193.091029 90.0
195.039789 38.0
195.067149 110.0
195.079479 132.0
196.057629 208.0
197.060229 232.0
198.054349 38.0
199.041299 593.0
200.054259 502.0
201.058669 6090.0
202.066999 694.0
202.402739 46.0
203.076449 8216.0
204.043619 98.0
205.062209 328.0
206.073489 94.0
207.039309 42.0
207.075959 167.0
208.054019 77.0
209.058469 252.0
210.068179 79.0
211.078889 360.0
212.037829 80.0
212.049219 224.0
213.047529 58.0
213.057539 117.0
215.036799 105.0
215.081339 86.0
216.040679 214.0
217.054089 520.0
218.048189 79.0
218.062649 129.0
219.028588 46.0
219.066298 434.0
220.067888 74.0
221.063018 272.0
221.096528 70.0
222.067698 135.0
223.065888 90.0
223.074648 107.0
223.083428 130.0
224.048708 108.0
224.051628 206.0
225.057188 208.0
226.069428 60.0
227.069168 158.0
228.042998 704.0
229.054498 2449.0
230.056348 87.0
230.068238 175.0
231.066338 76.0
233.060068 184.0
234.063158 315.0
235.075898 241.0
236.051678 54.0
237.058148 139.0
237.068688 132.0
238.066758 106.0
239.072968 1178.0
240.040298 81.0
240.046388 142.0
241.052178 105.0
242.060098 65.0
243.067078 53.0
244.059288 66.0
245.048928 83.0
245.073448 117.0
246.051308 2817.0
246.251128 117.0
247.069618 23561.0
248.404908 181.0
248.749308 184.0
249.067698 216.0
250.064348 89.0
251.073838 152.0
253.045908 71.0
253.055268 126.0
254.058288 70.0
255.064828 398.0
262.066568 40.0
263.063428 140.0
263.072948 223.0
264.090828 69.0
265.080368 104.0
265.091538 86.0
266.054178 82.0
267.072978 1357.0
268.074508 229.0
269.077898 70.0
275.059618 536.0
276.085768 60.0
277.060008 123.0
277.077928 130.0
277.087718 168.0
278.096388 107.0
279.069258 113.0
280.078228 155.0
281.079208 196.0
281.090678 113.0
282.047378 53.0
283.060098 384.0
284.069658 171.0
285.067788 89.0
285.085978 118.0
287.074288 50.0
289.072828 81.0
291.074927 224.0
292.063547 49.0
292.076917 59.0
293.078957 364.0
294.092787 123.0
295.086467 142.0
295.101607 56.0
296.068367 34.0
297.082257 70.0
297.116037 61.0
298.086067 463.0
299.098337 3289.0
300.074997 85.0
301.077037 134.0
303.060557 47.0
303.089547 33.0
305.084817 238.0
306.096877 49.0
307.079757 88.0
307.093487 199.0
309.076027 409.0
310.086067 72.0
311.058027 73.0
311.092567 92.0
312.109357 96.0
313.113967 88.0
314.076767 182.0
314.090647 45.0
315.091437 182.0
317.089127 66.0
317.113567 97.0
319.054637 92.0
321.070077 44.0
321.075357 81.0
322.064377 72.0
322.087227 131.0
323.097147 348.0
324.098097 213.0
325.107647 456.0
325.118237 309.0
326.079847 146.0
327.087167 127.0
327.103127 76.0
337.069527 65.0
337.096507 102.0
337.110877 95.0
338.095467 36.0
338.122477 48.0
339.083267 117.0
340.097817 364.0
341.108437 839.0
342.116957 51.0
343.083417 39.0
349.068097 32.0
350.079147 41.0
351.089797 185.0
351.097147 329.0
353.078657 85.0
353.108137 171.0
354.099167 65.0
355.110087 98.0
355.115607 448.0
355.126687 596.0
356.122417 120.0
356.135357 89.0
357.138077 74.0
365.101816 249.0
367.081126 78.0
368.089706 80.0
368.102856 145.0
369.095896 208.0
370.107246 78.0
371.116226 69.0
382.050606 56.0
382.108076 319.0
383.115976 6353.0
384.111766 43.0
384.125226 104.0
386.105326 75.0
398.110486 51.0
399.102096 94.0
400.122356 3164.0
401.128216 2344.0
407.757516 56.0
409.123576 20355.0
410.757946 225.0
410.855236 55.0
426.137276 61.0
446.115275 12.0
456.160805 84.0
563.176674 105.0
563.195294 82.0
580.195103 54.0

