>compound 
>formula C24H26O13
>parentmass 540.17116189239
>ionization [M + H3N + H]+
>instrumentation Unknown (LCMS)
>source file:/Users/fanzhoukong/Documents/GitHub/Libgen/data/EAD_PFP/0_unknown_/spectrum.ms
>quality UNKNOWN

>ms2peaks
50.01406 384.0
51.022961 1153.0
52.029912 256.0
53.038153 205.0
54.035173 29.0
54.045983 16.0
55.053844 492.0
55.932464 13.0
56.050485 75.0
57.070115 41.0
57.933296 8.0
58.995427 14.0
59.045847 12.0
60.000407 6.0
61.007748 32.0
61.030708 8.0
62.015769 456.0
63.024259 1697.0
64.03149 65.0
65.040381 1454.0
66.043621 140.0
67.054542 637.0
68.033543 14.0
68.052933 8.0
68.996033 108.0
69.033473 53.0
70.070214 6.0
71.048615 34.0
73.029946 28.0
73.045016 13.0
74.014387 57.0
75.015607 7.0
75.023247 89.0
76.031238 83.0
77.041669 2267.0
78.046649 884.0
79.05552 1142.0
80.055981 107.0
81.068891 300.0
82.043812 13.0
82.071322 39.0
83.086153 102.0
85.028814 224.0
86.013555 59.0
87.023155 9.0
88.033136 114.0
88.749676 10.0
89.041547 1713.0
90.045467 76.0
91.055028 2390.0
92.055169 145.0
93.036199 755.0
94.06424 70.0
95.049211 45.0
95.059721 12.0
95.070221 26.0
95.085511 43.0
96.080601 19.0
97.029722 182.0
97.947633 7.0
99.046243 14.0
100.113744 45.0
101.040185 14.0
102.047075 134.0
103.055976 249.0
104.055847 22.0
104.061847 26.0
105.033447 89.0
105.051517 190.0
106.041828 246.0
107.050989 732.0
108.021129 14.0
108.070009 9.0
109.02839 10.0
109.1 22.0
110.034151 68.0
111.044521 495.0
112.998943 7.0
113.036433 5.0
114.037453 7.0
115.055504 793.0
116.027415 5.0
116.059075 187.0
117.037325 1837.0
118.043106 73.0
118.052676 53.0
118.064386 13.0
119.052107 19.0
119.078837 38.0
120.082588 40.0
121.064688 9.0
121.100258 21.0
122.103819 11.0
123.046309 355.0
123.11587 6.0
124.05243 20.0
124.12118 12.0
125.105371 6.0
126.046162 56.0
126.904382 18.0
127.055612 137.0
128.063533 426.0
129.056544 5.0
129.068784 127.0
130.067904 64.0
130.991245 7.0
131.051785 58.0
131.061885 73.0
131.078725 26.0
132.019156 16.0
132.055166 8.0
132.076556 25.0
133.025076 25.0
133.031846 115.0
133.073656 7.0
133.099656 11.0
134.038207 1959.0
135.044968 3145.0
136.030338 5.0
136.056618 72.0
136.112618 6.0
137.026169 16.0
137.061729 6.0
137.136279 21.0
138.0337 21.0
138.13959 18.0
139.04259 562.0
140.048221 34.0
140.059821 22.0
141.070272 198.0
141.927922 11.0
142.070332 45.0
143.080973 67.0
144.056394 11.0
144.071684 6.0
144.086974 50.0
145.030394 1297.0
146.034905 45.0
147.045266 21.0
147.079726 13.0
147.116556 6.0
147.963776 5.0
148.050766 10.0
148.111566 6.0
149.058497 36.0
150.043238 17.0
151.051698 30.0
152.062319 98.0
153.06177 31.0
153.07874 22.0
154.07787 29.0
155.063161 17.0
156.083442 15.0
156.087102 18.0
157.068972 16.0
157.103352 9.0
158.098273 36.0
159.045654 6.0
159.116094 26.0
160.111154 13.0
161.055855 18.0
161.096865 21.0
162.033236 125.0
162.497456 14.0
162.507456 20.0
163.046136 6068.0
164.047107 40.0
164.063427 34.0
165.068768 158.0
166.069618 33.0
166.130208 5.0
167.077299 57.0
168.0588 17.0
168.08166 30.0
168.08927 15.0
169.07121 9.0
169.08393 13.0
169.09922 19.0
169.11833 6.0
170.094311 10.0
171.043632 13.0
171.065412 7.0
172.111232 9.0
173.130593 16.0
174.127124 8.0
175.136874 10.0
175.149844 12.0
176.050755 12.0
176.059845 38.0
177.053006 6.0
177.066036 24.0
178.079046 100.0
179.035937 500.0
180.042708 1976.0
181.050998 913.0
182.096459 25.0
182.191659 64.0
183.03492 23.0
183.11709 7.0
183.14097 9.0
184.114 15.0
185.058961 10.0
186.126612 13.0
187.040552 22.0
187.053942 9.0
188.057453 10.0
188.142093 9.0
189.056924 11.0
189.069044 72.0
189.093304 5.0
189.166044 6.0
190.068494 18.0
190.079294 40.0
190.130624 5.0
191.004225 38.0
191.032665 35.0
191.094945 8.0
192.088866 25.0
192.980556 27.0
193.048606 16.0
193.980727 10.0
194.054407 14.0
194.095367 14.0
194.164977 10.0
194.978008 6.0
195.088838 10.0
195.117548 16.0
196.109529 6.0
197.114999 8.0
197.130129 10.0
199.05765 7.0
199.137831 11.0
200.047101 12.0
200.060961 11.0
201.065382 8.0
202.076523 55.0
202.169833 7.0
203.140443 26.0
203.144643 85.0
204.088204 11.0
204.151174 13.0
205.046555 7.0
205.064795 12.0
205.094255 16.0
205.160195 7.0
206.060615 12.0
206.081705 11.0
206.102785 6.0
207.032046 54.0
208.034037 16.0
208.055217 7.0
208.110327 10.0
209.011507 14.0
209.037007 5.0
209.102167 5.0
210.990458 10.0
211.169779 15.0
213.16316 10.0
214.169821 11.0
215.085441 23.0
215.175971 6.0
216.086562 18.0
217.055323 10.0
217.089983 11.0
218.058113 9.0
218.095713 14.0
219.113954 10.0
220.108385 5.0
220.115645 7.0
220.987095 6.0
221.118175 8.0
222.128816 7.0
223.074467 13.0
223.150547 6.0
225.043768 14.0
225.062888 6.0
226.081009 5.0
227.073399 9.0
227.176749 7.0
228.07685 7.0
228.09459 8.0
229.178871 46.0
229.189241 11.0
231.081062 6.0
233.049433 5.0
234.193384 8.0
235.062185 7.0
236.214095 11.0
238.063567 6.0
239.084907 10.0
240.078078 6.0
241.090059 8.0
242.099559 8.0
242.200179 5.0
243.21202 8.0
244.114231 5.0
245.113171 6.0
246.054232 6.0
247.061773 7.0
248.994894 11.0
249.053634 6.0
250.968125 6.0
251.070565 12.0
252.197196 6.0
253.196947 9.0
254.098727 6.0
257.083779 5.0
258.11363 11.0
259.096631 13.0
260.244272 11.0
265.022815 27.0
266.018905 6.0
266.997636 18.0
269.225638 13.0
270.229568 26.0
271.093429 7.0
272.107289 15.0
273.15056 5.0
276.240312 9.0
277.257223 10.0
278.254754 18.0
279.067494 8.0
280.073205 7.0
281.052815 97.0
282.035766 7.0
282.053856 34.0
283.050107 14.0
285.046168 7.0
287.2352 36.0
288.24386 90.0
289.069401 5.0
293.243254 9.0
294.252294 42.0
298.084297 14.0
299.059298 8.0
305.250742 64.0
306.254532 172.0
307.081403 16.0
310.249895 6.0
311.260146 14.0
312.263346 28.0
316.092059 24.0
319.080831 8.0
323.257374 32.0
324.242694 19.0
324.260334 141.0
325.095235 2035.0
328.303647 6.0
335.133482 14.0
341.271276 8.0
342.263737 29.0
342.274607 33.0
354.316725 6.0
359.275808 6.0
360.275469 9.0
361.097799 200.0
371.003016 6.0
377.29394 9.0
378.297391 26.0
391.232919 6.0
396.082313 8.0
417.007867 11.0
422.18502 6.0
480.225839 9.0
481.23749 8.0
522.180057 7.0
522.229307 6.0
537.120317 3.0
539.283889 5.0
540.216999 7.0
540.267109 52.0
540.278459 114.0

