>compound 
>formula C15H20O6
>parentmass 319.11520936202004
>ionization [M + Na]+
>instrumentation Unknown (LCMS)
>source file:/Users/fanzhoukong/Documents/GitHub/Libgen/data/EAD_PFP/0_unknown_/spectrum.ms
>quality UNKNOWN

>ms2peaks
50.017285 161.0
51.024802 824.0
52.03036 85.0
53.039297 134.0
54.044245 33.0
55.055723 192.0
56.05677 33.0
57.074968 25.0
60.078981 12.0
60.985948 64.0
62.013836 35.0
63.023083 146.0
64.028731 45.0
65.039169 1129.0
66.044776 96.0
67.053294 240.0
68.995569 74.0
71.049774 14.0
74.013027 27.0
75.021865 60.0
76.034112 81.0
77.04111 641.0
78.045207 187.0
79.055815 817.0
80.056263 114.0
81.07094 119.0
83.048925 157.0
84.961341 93.0
86.017448 29.0
89.038091 201.0
90.045709 36.0
91.057126 1272.0
92.060094 139.0
93.037371 96.0
93.067611 115.0
94.065409 66.0
95.049427 30.0
95.085726 98.0
97.95268 19.0
98.097199 16.0
99.043517 25.0
101.030522 7.0
102.04429 47.0
103.054167 164.0
104.688533 28.0
105.035623 792.0
105.045663 1356.0
106.0531 68.0
107.054188 106.0
109.029563 42.0
111.048798 59.0
113.001163 25.0
114.041771 10.0
115.054579 325.0
116.059196 61.0
117.055464 59.0
117.069244 64.0
118.067701 37.0
119.082149 25.0
120.083766 39.0
121.029224 21.0
121.099284 32.0
123.047489 472.0
125.003585 49.0
126.046242 26.0
127.05128 83.0
128.062517 291.0
129.065525 52.0
130.99243 79.0
132.019198 34.0
132.078868 16.0
133.068055 221.0
134.055283 7.0
137.027366 25.0
137.098456 53.0
139.049561 18.0
140.052909 27.0
141.070296 100.0
142.062194 22.0
143.075131 47.0
144.078739 22.0
146.059784 46.0
148.086529 17.0
150.046835 19.0
151.074562 433.0
152.06231 187.0
153.067807 75.0
154.069335 66.0
155.059472 50.0
155.087532 39.0
156.07238 63.0
157.087368 33.0
158.098225 36.0
159.097503 33.0
160.10863 21.0
160.991168 43.0
161.081908 54.0
162.058136 16.0
162.971033 55.0
162.973533 230.0
164.063361 52.0
165.018379 168.0
165.030969 247.0
165.067448 41.0
165.076248 113.0
166.073346 114.0
167.078494 60.0
168.070161 30.0
168.091751 38.0
169.068579 28.0
170.078906 35.0
171.098634 29.0
172.077742 13.0
174.130907 20.0
175.148444 18.0
176.061042 32.0
176.141642 18.0
177.09072 29.0
178.077627 73.0
179.065975 74.0
179.085645 52.0
180.079402 54.0
181.0812 40.0
182.063298 26.0
182.091058 35.0
183.103725 68.0
184.068683 23.0
185.10814 23.0
186.130488 22.0
187.048446 21.0
189.020421 249.0
190.066988 44.0
191.004076 48.0
192.064274 17.0
192.984491 71.0
193.100191 25.0
193.981949 27.0
195.012047 15.0
195.100976 31.0
197.113472 9.0
199.036737 17.0
199.056087 33.0
200.039994 23.0
201.004102 29.0
202.07912 33.0
203.106757 27.0
205.088452 32.0
206.09276 13.0
207.031858 107.0
208.112955 30.0
209.032553 26.0
209.133123 27.0
213.090003 19.0
215.089548 42.0
216.096406 19.0
217.082524 48.0
218.034731 10.0
218.095491 19.0
219.089059 15.0
224.137707 17.0
225.055284 45.0
226.074852 18.0
227.07757 36.0
228.081017 27.0
229.052565 17.0
231.10016 28.0
233.097005 8.0
235.15204 24.0
236.146048 37.0
238.031523 16.0
239.004341 22.0
239.033101 12.0
241.111046 14.0
242.987181 12.0
247.124581 11.0
248.988377 18.0
249.605525 26.0
251.008162 14.0
253.028297 8.0
255.028372 15.0
256.03841 23.0
257.041028 41.0
258.130595 25.0
262.040676 8.0
265.022458 50.0
266.020106 20.0
266.997244 18.0
272.029332 20.0
273.043339 22.0
274.077057 11.0
275.086734 16.0
275.101374 40.0
276.093382 34.0
279.091635 19.0
279.135825 8.0
281.04912 107.0
281.06062 59.0
282.050158 31.0
283.026595 98.0
293.093521 23.0
299.062227 24.0
301.030602 35.0
301.090112 23.0
318.66573 17.0
319.118819 36.0
319.155558 117.0
319.192308 60.0

