>compound 
>formula C16H14O7
>parentmass 319.08123378821006
>ionization [M + H]+
>instrumentation Unknown (LCMS)
>source file:/Users/fanzhoukong/Documents/GitHub/Libgen/data/EAD_PFP/0_unknown_/spectrum.ms
>quality UNKNOWN

>ms2peaks
50.015262 244.0
51.024171 577.0
52.03113 103.0
53.038658 319.0
54.033527 7.0
54.041447 20.0
55.017286 5.0
55.048536 5.0
55.055076 257.0
56.048785 6.0
56.050255 31.0
56.059055 11.0
56.964843 34.0
57.070623 26.0
57.935292 10.0
58.065112 5.0
60.984538 64.0
62.017037 41.0
63.023206 259.0
64.029635 19.0
65.040093 1024.0
66.044912 155.0
67.054241 348.0
68.05343 6.0
68.997349 129.0
69.034779 5.0
70.042827 4.0
71.049106 6.0
72.045095 5.0
74.015722 41.0
75.022041 29.0
76.02917 24.0
77.042159 932.0
78.044537 196.0
79.053396 445.0
80.051205 52.0
81.034104 63.0
81.048214 119.0
81.054384 36.0
81.065854 31.0
82.056722 5.0
82.067362 14.0
83.083961 38.0
84.08166 6.0
84.961559 259.0
86.010398 8.0
87.023636 8.0
88.029935 6.0
89.039244 154.0
90.045943 50.0
91.054561 1043.0
92.05752 166.0
93.057469 6.0
93.064079 79.0
93.068809 101.0
94.041918 13.0
94.054268 44.0
94.064718 30.0
95.048726 31.0
95.067836 56.0
95.084066 15.0
95.952445 14.0
97.028264 24.0
97.948103 6.0
98.015013 6.0
99.99368 13.0
100.11323 12.0
102.044578 76.0
103.054456 128.0
104.051325 19.0
104.059315 53.0
105.069054 121.0
106.069533 59.0
107.050432 30.0
107.057532 20.0
107.080841 11.0
108.08269 11.0
109.027829 98.0
109.063629 34.0
111.003697 19.0
113.001484 30.0
115.050702 71.0
115.053862 547.0
116.05848 67.0
117.056859 30.0
117.069579 99.0
118.059528 10.0
119.051497 173.0
120.079825 18.0
121.026334 12.0
121.096394 23.0
122.039333 15.0
123.044592 31.0
125.059809 5.0
126.046608 42.0
126.903727 7.0
127.054957 112.0
128.062886 393.0
129.055874 5.0
129.070344 141.0
130.067233 82.0
130.991692 15.0
131.052242 19.0
131.066812 18.0
131.083642 26.0
132.008331 5.0
132.072501 21.0
132.079251 23.0
133.013089 13.0
133.065059 4.0
133.087669 20.0
133.102369 14.0
134.037528 4.0
134.095378 12.0
135.041987 12.0
135.049967 12.0
136.017066 7.0
137.027764 973.0
138.043343 7.0
139.054602 65.0
140.048661 25.0
141.068369 168.0
141.927198 11.0
142.069608 39.0
143.057977 5.0
143.074387 30.0
144.080336 35.0
144.088576 33.0
145.075664 9.0
145.087454 27.0
145.096904 17.0
145.967873 35.0
147.046902 49.0
147.114612 9.0
147.965381 20.0
149.01825 22.0
149.135469 5.0
151.049717 13.0
152.062746 50.0
153.069455 82.0
154.079493 24.0
155.059932 15.0
156.080181 6.0
156.091201 11.0
157.07798 5.0
158.094998 10.0
161.083605 7.0
162.976522 294.0
164.060071 15.0
165.05786 133.0
165.06793 111.0
166.075089 39.0
167.072627 65.0
168.064296 15.0
168.080806 37.0
169.070335 9.0
169.080535 13.0
169.098365 12.0
170.079404 8.0
170.097284 21.0
171.092732 9.0
171.101712 12.0
172.037121 12.0
172.087231 6.0
172.111651 6.0
173.10653 6.0
174.124939 9.0
175.152837 7.0
176.061556 29.0
177.053425 6.0
177.069065 11.0
178.075534 38.0
178.076824 46.0
178.962953 7.0
179.059932 10.0
179.084852 45.0
180.085191 28.0
180.98288 5.0
181.08039 9.0
181.09886 6.0
182.080999 6.0
182.095549 8.0
182.190749 33.0
183.033988 6.0
183.121487 7.0
184.033336 7.0
184.059916 14.0
184.090476 7.0
184.109096 5.0
185.059365 8.0
185.134005 10.0
187.099903 6.0
188.053831 7.0
188.068601 7.0
188.146531 11.0
189.0681 59.0
190.074299 25.0
191.004618 49.0
191.079098 19.0
192.002376 5.0
192.986405 66.0
193.994774 5.0
194.098494 15.0
194.964713 8.0
195.108373 14.0
196.107171 6.0
196.123631 6.0
197.04664 6.0
197.06039 17.0
197.09202 15.0
198.131719 7.0
199.106438 5.0
199.147888 6.0
200.061346 13.0
201.075505 5.0
201.125525 20.0
202.076924 16.0
203.087783 9.0
203.142223 27.0
204.078782 10.0
204.089982 18.0
204.145961 5.0
205.09745 6.0
205.16198 17.0
206.107399 10.0
206.158029 7.0
207.035238 114.0
208.032997 23.0
209.014735 16.0
209.028895 16.0
210.091074 7.0
210.992253 14.0
211.007913 6.0
211.089023 5.0
211.130303 5.0
211.990922 7.0
212.043702 5.0
213.05486 27.0
215.087268 21.0
215.105938 9.0
216.088367 8.0
217.051385 29.0
218.098994 10.0
218.962093 10.0
219.099813 7.0
219.963452 5.0
222.081019 6.0
223.127508 6.0
225.042686 17.0
226.074024 6.0
227.070813 11.0
227.082623 14.0
229.051721 23.0
229.099161 9.0
230.056549 8.0
230.114479 5.0
232.117567 6.0
233.093176 5.0
234.090324 8.0
235.124133 7.0
237.046271 6.0
238.139499 6.0
239.086788 8.0
240.093627 7.0
241.055436 12.0
242.153284 5.0
242.984793 15.0
245.082861 210.0
247.105248 5.0
248.989066 28.0
249.993285 8.0
251.968922 6.0
252.094882 6.0
252.946391 5.0
257.088856 5.0
257.112416 5.0
259.119073 8.0
265.018386 26.0
266.022445 15.0
266.999584 27.0
268.978491 8.0
268.992961 5.0
269.049201 12.0
271.058269 9.0
273.078066 145.0
276.154362 3.0
281.049856 118.0
282.054195 20.0
283.048794 30.0
284.043443 6.0
286.05132 18.0
287.097739 3.0
290.998304 14.0
291.162094 6.0
299.027434 6.0
299.061314 5.0
301.068792 88.0
309.005662 39.0
310.008691 6.0
319.081159 5.0
319.110879 6.0
319.128369 25.0
319.156379 10.0
319.196629 13.0

