>compound 
>formula C6H5N5O2
>parentmass 180.05160542244
>ionization [M + H]+
>instrumentation Unknown (LCMS)
>source file:/Users/fanzhoukong/Documents/GitHub/Libgen/data/EAD_PFP/0_unknown_/spectrum.ms
>quality UNKNOWN

>ms2peaks
50.014008 76.0
51.021511 212.0
52.029175 40.0
53.036708 59.0
54.034451 10.0
55.054575 139.0
55.933208 17.0
56.048298 11.0
56.058568 8.0
56.964371 19.0
57.068672 40.0
57.932595 12.0
59.047408 22.0
60.982575 35.0
62.011998 25.0
63.023582 133.0
64.026115 16.0
65.038919 779.0
66.042962 49.0
67.054685 173.0
68.021579 5.0
68.056329 11.0
68.992952 126.0
70.063836 8.0
72.935585 16.0
73.047736 5.0
74.014609 29.0
75.014992 29.0
76.028076 61.0
77.038489 848.0
78.040853 107.0
79.053186 257.0
80.05013 58.0
81.067433 111.0
82.071636 26.0
83.05701 5.0
84.079713 9.0
86.01573 10.0
87.022603 13.0
88.027077 8.0
89.03823 187.0
90.037503 15.0
90.043083 22.0
91.053567 1211.0
92.05747 117.0
93.037584 35.0
93.052704 52.0
94.063737 22.0
95.0468 86.0
95.952433 13.0
97.063007 6.0
98.01502 6.0
98.094571 12.0
99.992737 10.0
102.047604 40.0
103.051538 47.0
104.052401 21.0
105.072154 64.0
106.064598 39.0
107.065751 16.0
107.081971 20.0
108.079765 14.0
108.085875 21.0
109.084228 5.0
110.058391 6.0
110.083061 6.0
110.998694 13.0
112.998541 21.0
114.045425 5.0
115.055108 360.0
116.046022 11.0
116.058692 40.0
117.043305 8.0
117.056025 23.0
117.066625 113.0
118.064018 24.0
118.075718 12.0
118.949151 10.0
119.063502 10.0
119.083812 25.0
120.081145 44.0
120.952248 7.0
121.029838 251.0
124.997682 5.0
126.048025 21.0
127.045349 20.0
127.055289 75.0
128.062112 213.0
129.067346 90.0
130.066469 95.0
130.992072 26.0
131.072803 12.0
132.019986 19.0
132.070626 25.0
133.073379 11.0
134.085573 15.0
134.099183 21.0
135.028746 10.0
136.989203 5.0
138.963809 13.0
139.05505 16.0
140.050293 9.0
141.071186 46.0
141.928839 8.0
142.05609 6.0
142.0736 10.0
143.074893 9.0
144.080847 27.0
145.06438 7.0
145.968403 14.0
146.093883 5.0
147.103267 6.0
147.96713 12.0
148.11374 7.0
150.046637 40.0
151.05632 48.0
152.060924 110.0
153.065217 90.0
154.06431 67.0
155.060554 9.0
155.065434 13.0
155.083734 12.0
156.061227 12.0
156.069787 17.0
156.084487 17.0
157.086001 19.0
158.078404 8.0
158.095644 18.0
160.109771 14.0
161.093004 10.0
162.092978 6.0
162.106688 7.0
162.125418 10.0
162.997231 12.0
163.023491 12.0
163.054751 21.0
164.059534 25.0
165.068658 128.0
166.068241 27.0
167.073385 51.0
168.065058 9.0
168.077748 46.0
169.077481 17.0
170.073795 6.0
170.083995 16.0
170.101895 9.0
171.090958 11.0
172.112452 15.0
173.107335 11.0
174.093438 6.0
174.996821 9.0
176.061085 18.0
177.062098 17.0
178.076382 45.0
179.069995 10.0
179.077845 17.0
180.078169 32.0
180.091329 27.0
180.132079 6.0

