>compound 
>formula C19H18O6
>parentmass 365.09955929756006
>ionization [M + Na]+
>instrumentation Unknown (LCMS)
>source file:/Users/fanzhoukong/Documents/GitHub/Libgen/data/EAD_PFP/0_unknown_/spectrum.ms
>quality UNKNOWN

>ms2peaks
91.412323 11.0
112.998792 42.0
115.050095 53.0
115.053245 110.0
117.056247 34.0
118.041879 31.0
120.079211 14.0
121.094713 71.0
123.091795 21.0
126.053699 37.0
127.049931 51.0
128.064502 194.0
129.069733 63.0
130.991096 27.0
131.061726 37.0
132.078647 27.0
149.13366 36.0
150.043061 66.0
151.051513 53.0
151.112933 62.0
152.063344 245.0
153.067645 120.0
154.064307 64.0
154.078887 37.0
155.060538 46.0
155.086158 70.0
155.092258 72.0
156.084459 47.0
157.098261 27.0
158.096842 66.0
159.085013 45.0
159.117134 64.0
161.061866 66.0
163.052189 70.0
164.06197 41.0
165.067321 120.0
166.061843 22.0
167.075824 58.0
167.085954 77.0
168.076396 98.0
169.078647 47.0
170.094128 55.0
172.085341 36.0
173.042772 21.0
175.075745 58.0
175.113345 52.0
176.060926 43.0
177.071068 45.0
178.073609 72.0
179.06981 43.0
180.079312 49.0
181.085063 65.0
182.087004 32.0
183.067856 50.0
183.085076 51.0
184.071257 48.0
185.130718 38.0
188.073362 33.0
188.137862 28.0
189.056724 266.0
190.072335 30.0
190.999956 44.0
191.028386 31.0
192.001758 39.0
192.079158 59.0
193.083799 50.0
194.09513 34.0
195.077662 50.0
195.114602 43.0
197.077654 31.0
198.071806 78.0
199.147277 46.0
201.04294 35.0
201.10544 54.0
202.047051 52.0
203.082982 62.0
203.170932 25.0
204.089364 21.0
205.123495 45.0
207.036058 105.0
208.111509 31.0
210.032232 41.0
212.147224 31.0
213.052816 31.0
213.162926 11.0
215.082348 31.0
215.141239 16.0
217.101281 21.0
219.100664 63.0
221.081516 48.0
221.149977 49.0
224.08345 31.0
225.087602 23.0
226.067513 54.0
227.080524 25.0
227.179455 23.0
229.082237 27.0
230.100489 35.0
231.11804 37.0
233.147893 36.0
234.134664 47.0
235.103995 49.0
237.051678 23.0
239.069501 28.0
239.075561 25.0
240.228112 46.0
241.193223 37.0
242.157225 28.0
244.092527 12.0
245.135909 12.0
248.989984 38.0
253.086029 23.0
255.098842 24.0
256.077673 27.0
257.182465 16.0
262.208871 25.0
262.213631 157.0
263.164713 30.0
265.143755 71.0
266.998948 26.0
268.979481 16.0
271.096363 64.0
273.127616 12.0
275.124199 36.0
277.149291 33.0
279.068854 33.0
280.072905 19.0
281.067297 113.0
282.232918 54.0
283.095959 23.0
284.067601 38.0
287.196725 48.0
288.167066 28.0
291.17485 43.0
293.165763 24.0
294.087334 25.0
297.088618 72.0
298.082299 23.0
299.092861 158.0
301.217744 42.0
303.198306 69.0
303.225616 60.0
305.169959 64.0
307.266492 27.0
307.271642 129.0
309.077344 281.0
310.083936 23.0
311.090467 63.0
313.10835 66.0
315.153672 64.0
319.202998 25.0
321.14868 40.0
321.21014 36.0
324.097714 110.0
325.109046 206.0
327.083258 202.0
329.223401 76.0
333.038186 40.0
333.174056 33.0
335.113389 12.0
342.107508 444.0
347.101135 52.0
347.217955 130.0
365.196899 221.0
365.215629 2996.0

