>compound 
>formula C10H15NO4
>parentmass 214.1074
>ionization [M + H]+
>instrumentation Unknown (LCMS)
>source file:/Users/fanzhoukong/Documents/GitHub/Libgen/data/NIST_MONA/0_unknown_/spectrum.ms
>quality UNKNOWN

>ms2peaks
57.0318 1.62081
66.0919 0.56028
68.0574 0.62031
68.1193 0.30015
69.0334 1.490745
70.0282 2.061031
71.0121 14.717359
71.0483 91.525763
73.0164 0.52026
73.0523 0.50025
74.023 100.0
74.0594 78.269135
75.0806 0.210105
84.0437 22.771386
85.028 5.712856
86.0476 0.470235
95.0471 0.36018
97.0251 0.24012
98.0595 1.410705
102.0546 17.378689
113.0598 4.382191
114.0632 1.08054

