>compound 
>formula C15H18O4
>parentmass 280.15433005842004
>ionization [M + H3N + H]+
>instrumentation Unknown (LCMS)
>source file:/Users/fanzhoukong/Documents/GitHub/Libgen/data/EAD_PFP/0_unknown_/spectrum.ms
>quality UNKNOWN

>ms2peaks
50.015285 403.0
51.024182 647.0
52.03185 268.0
53.005137 27.0
53.037957 160.0
54.040725 41.0
55.054353 413.0
55.9359 21.0
56.05025 329.0
56.965578 63.0
57.071358 70.0
58.067335 554.0
59.074193 141.0
60.082111 127.0
61.007468 53.0
62.017786 291.0
63.025513 1375.0
64.027251 26.0
65.039269 917.0
66.046466 140.0
67.054194 307.0
68.052581 32.0
68.995669 172.0
70.065737 22.0
71.073824 355.0
72.082462 22.0
74.016507 85.0
75.021975 79.0
76.031662 153.0
77.04123 1854.0
78.047927 1187.0
79.054195 388.0
80.052883 88.0
81.07195 81.0
82.068168 18.0
83.050835 291.0
84.054623 103.0
85.027391 17.0
86.096638 121.0
87.026286 28.0
88.029833 27.0
89.041921 1604.0
90.047699 125.0
91.056326 2212.0
92.059294 151.0
93.065861 98.0
94.039899 38.0
94.061749 40.0
95.057217 42.0
95.087776 45.0
96.055034 24.0
97.95186 17.0
98.978357 28.0
101.040522 49.0
101.049382 120.0
102.04346 193.0
103.056317 277.0
104.056185 41.0
104.107155 61.0
105.036783 324.0
106.04519 141.0
107.053338 118.0
108.023495 71.0
109.054283 33.0
110.977748 31.0
111.003548 36.0
112.994043 15.0
113.007583 57.0
115.056859 676.0
116.057266 89.0
117.036564 2893.0
118.044461 365.0
119.052399 269.0
120.058187 120.0
121.029404 63.0
122.038082 58.0
123.050939 22.0
124.995005 43.0
126.032142 18.0
126.050832 28.0
127.03601 18.0
127.05699 146.0
128.060487 78.0
128.063817 307.0
129.054575 42.0
129.071275 95.0
130.040233 34.0
130.055873 44.0
130.067042 63.0
130.996 19.0
131.05992 52.0
132.020528 35.0
133.028725 216.0
134.038473 1143.0
135.044081 369.0
136.056868 20.0
139.065951 47.0
140.049629 35.0
141.069356 75.0
142.077594 16.0
143.067151 21.0
144.069539 37.0
145.034167 3062.0
146.039874 158.0
147.047872 808.0
148.054569 425.0
149.059907 1243.0
150.032645 169.0
151.054312 52.0
151.063952 49.0
152.05166 29.0
152.06374 97.0
153.068037 79.0
154.073215 37.0
155.069472 31.0
156.07017 25.0
156.09587 40.0
157.029888 14.0
157.067958 58.0
158.034425 24.0
158.073845 27.0
158.097235 30.0
159.050803 33.0
159.084153 19.0
160.05185 43.0
160.991388 168.0
161.056048 71.0
162.034676 172.0
162.054656 50.0
162.072096 59.0
163.008793 22.0
163.037563 43.0
163.042563 129.0
164.049811 150.0
165.075248 134.0
166.068546 32.0
167.073664 38.0
167.593232 30.0
168.064071 16.0
168.083111 29.0
169.068839 13.0
170.084266 19.0
170.996404 19.0
173.026379 34.0
174.043267 18.0
174.067837 25.0
175.038525 455.0
176.047002 43.0
176.063912 58.0
176.473591 17.0
177.0597 4062.0
177.07143 2049.0
178.066137 131.0
178.084427 45.0
178.958775 21.0
179.017745 31.0
179.034795 26.0
180.079682 23.0
181.06961 26.0
182.087348 34.0
183.040365 23.0
184.074273 23.0
186.333967 25.0
188.046853 24.0
189.057071 58.0
189.070531 42.0
190.056478 18.0
190.065938 70.0
191.046346 107.0
191.072066 133.0
192.048284 343.0
192.988861 36.0
193.067811 23.0
193.58947 23.0
194.998647 17.0
199.006647 24.0
201.008572 29.0
202.05715 18.0
202.07664 46.0
203.069367 21.0
203.146157 15.0
205.022823 27.0
205.160312 17.0
206.06212 1720.0
207.034988 55.0
209.031453 22.0
212.150415 14.0
216.034806 25.0
217.015034 21.0
219.064739 402.0
220.053246 33.0
220.076506 177.0
220.342526 31.0
220.354146 81.0
220.387616 25.0
220.629085 15.0
221.083304 9502.0
222.083652 17.0
222.212151 20.0
222.393251 46.0
223.816967 15.0
258.182905 16.0
262.150515 19.0
269.007089 26.0
269.592267 255.0
274.599945 18.0
278.142047 14.0
280.151932 417.0

