>compound 
>formula C9H9NO4
>parentmass 218.04237877278
>ionization [M + Na]+
>instrumentation Unknown (LCMS)
>source file:/Users/fanzhoukong/Documents/GitHub/Libgen/data/EAD_PFP/0_unknown_/spectrum.ms
>quality UNKNOWN

>ms2peaks
50.014013 113.0
51.022916 505.0
52.025638 96.0
53.038111 99.0
54.034423 31.0
55.052356 65.0
55.053806 216.0
56.056318 39.0
56.966531 30.0
57.069351 64.0
60.984011 30.0
62.014973 67.0
63.024246 221.0
64.027558 40.0
65.038001 625.0
66.042023 60.0
67.052936 255.0
68.024648 19.0
68.99441 185.0
70.066933 17.0
71.049445 39.0
74.014403 17.0
75.019865 41.0
76.029548 78.0
77.03739 821.0
78.038873 141.0
79.055545 244.0
80.053368 86.0
81.06716 93.0
81.07245 122.0
83.050475 27.0
83.085295 35.0
84.082108 31.0
85.05143 20.0
88.023067 21.0
89.03696 238.0
90.044582 53.0
91.054135 1574.0
92.056157 167.0
93.05138 70.0
93.0665 95.0
94.066192 116.0
95.073145 41.0
95.951067 22.0
96.073937 19.0
97.06742 21.0
98.066982 15.0
99.996227 32.0
102.048142 74.0
103.054065 130.0
104.048937 38.0
105.06867 192.0
106.064112 50.0
107.077425 42.0
109.09907 30.0
111.000234 21.0
113.001119 68.0
114.043832 16.0
115.051404 218.0
116.054957 56.0
117.067109 99.0
118.064502 39.0
119.055424 14.0
119.082154 47.0
120.079477 22.0
120.987209 16.0
122.057392 13.0
122.088782 22.0
123.081204 27.0
124.089647 13.0
125.002519 41.0
126.042981 42.0
127.055744 103.0
128.061456 395.0
129.064459 103.0
130.069151 123.0
130.990264 45.0
131.049694 17.0
131.085584 14.0
132.051926 33.0
132.082326 30.0
132.959689 41.0
133.103179 12.0
137.095139 56.0
138.100621 19.0
139.056614 27.0
140.053016 23.0
141.070429 62.0
142.067001 31.0
142.079841 74.0
143.072934 33.0
144.082416 82.0
144.093006 49.0
145.100159 26.0
147.969886 23.0
149.979831 27.0
150.042201 34.0
151.048253 16.0
151.054273 68.0
152.062486 138.0
153.060738 22.0
153.068018 109.0
154.070751 63.0
155.059693 31.0
155.079223 48.0
156.077496 24.0
156.084836 77.0
157.071608 28.0
157.092488 49.0
158.077521 39.0
158.091071 119.0
160.081596 18.0
160.097716 25.0
161.098328 30.0
162.089571 14.0
163.053833 50.0
164.062365 40.0
165.066458 95.0
166.07108 43.0
167.071183 60.0
168.079325 52.0
169.072698 20.0
169.098158 20.0
170.08174 20.0
170.09836 29.0
171.092533 19.0
172.092185 23.0
172.117885 134.0
173.101178 20.0
174.08598 20.0
174.1196 22.0
176.060075 39.0
178.07797 72.0
179.083373 43.0
180.065295 12.0
180.082375 44.0
180.989287 13.0
181.084187 17.0
182.07819 34.0
183.100102 34.0
184.111575 24.0
185.104537 14.0
188.093985 39.0
189.067947 33.0
190.0647 13.0
191.003142 58.0
191.083022 26.0
192.080995 31.0
192.982197 48.0
192.997157 77.0
193.979629 20.0
194.09699 18.0
194.970062 19.0
195.115082 25.0
198.10817 14.0
200.100034 25.0
201.067067 11.0
202.078189 25.0
203.073722 27.0
204.080094 28.0
205.160487 20.0
207.029532 62.0
209.033057 34.0
215.071391 18.0
217.094616 19.0
218.098919 26.0
218.111949 80.0

