>compound 
>formula C14H16N2O3
>parentmass 283.10531338325006
>ionization [M + Na]+
>instrumentation Unknown (LCMS)
>source file:/Users/fanzhoukong/Documents/GitHub/Libgen/data/EAD_PFP/0_unknown_/spectrum.ms
>quality UNKNOWN

>ms2peaks
50.014591 180.0
51.022092 354.0
52.021982 39.0
52.029052 86.0
53.037273 149.0
54.034294 47.0
55.053684 471.0
56.052525 55.0
57.070696 62.0
60.982348 64.0
62.015609 35.0
63.020999 205.0
64.02977 39.0
65.039441 1182.0
66.043471 147.0
67.054392 353.0
68.995073 173.0
70.065964 140.0
71.084795 12.0
74.014237 29.0
75.019707 54.0
76.031098 102.0
77.039798 1223.0
78.041309 176.0
79.0545 505.0
80.05232 137.0
81.067871 203.0
82.041892 16.0
83.050292 24.0
83.087792 44.0
84.957314 22.0
85.050344 21.0
87.021185 14.0
87.044035 25.0
88.041266 6.0
89.048796 75.0
89.058036 947.0
90.041607 48.0
91.055817 1906.0
92.057848 209.0
93.065359 114.0
94.065049 66.0
94.069799 77.0
95.07677 39.0
95.08346 61.0
95.950871 23.0
96.063181 12.0
96.083341 29.0
97.099071 15.0
98.016342 16.0
99.994053 34.0
100.113603 23.0
102.044955 101.0
103.053855 201.0
104.049716 30.0
104.062706 45.0
105.070456 323.0
106.064897 66.0
107.063018 56.0
107.081258 88.0
108.080058 26.0
109.084519 41.0
110.99381 15.0
112.000291 11.0
112.997762 88.0
114.026862 38.0
115.054313 530.0
116.055774 147.0
117.065814 185.0
118.061065 58.0
118.068515 65.0
119.085115 73.0
120.080306 29.0
121.071017 19.0
121.092577 44.0
122.087447 28.0
122.105847 17.0
123.088558 21.0
123.115738 14.0
126.04713 45.0
126.90314 13.0
127.057691 131.0
127.063211 55.0
128.062321 475.0
129.067542 123.0
130.063293 145.0
130.989993 34.0
131.061773 43.0
131.077453 32.0
131.084183 38.0
132.021264 32.0
132.071914 45.0
133.012514 18.0
133.089364 219.0
134.057375 14.0
134.103875 16.0
137.129267 27.0
139.051718 36.0
141.06898 109.0
142.07255 52.0
143.080851 29.0
144.070372 39.0
144.083292 29.0
145.083352 29.0
145.969683 39.0
146.099893 26.0
147.964824 23.0
150.046725 27.0
151.056386 77.0
152.059767 214.0
153.070127 127.0
154.075308 99.0
155.078889 114.0
156.082079 65.0
157.08358 38.0
158.090751 44.0
158.899781 30.0
159.101141 48.0
160.113502 28.0
161.040812 34.0
161.096752 31.0
161.134052 29.0
162.977214 20.0
163.041014 27.0
164.052014 19.0
164.062054 25.0
165.047255 38.0
165.068645 179.0
166.068236 51.0
167.063246 25.0
167.082226 73.0
168.080277 40.0
169.064708 43.0
169.097818 37.0
170.068628 40.0
170.100588 21.0
171.074259 17.0
171.107569 27.0
172.11111 28.0
173.13306 22.0
174.119251 17.0
176.061022 43.0
177.077673 29.0
177.112853 23.0
178.069763 26.0
178.078923 131.0
179.084304 55.0
180.080705 13.0
180.085975 44.0
180.986305 38.0
181.083825 31.0
182.092386 20.0
182.187566 28.0
183.109017 20.0
184.036777 16.0
186.097088 19.0
187.055149 17.0
189.06219 40.0
189.07162 99.0
190.075111 20.0
191.000042 48.0
192.065652 16.0
192.081962 14.0
192.974983 16.0
192.981813 127.0
193.983334 20.0
194.087054 25.0
195.110594 35.0
195.127014 23.0
197.108006 16.0
198.049866 13.0
199.123887 25.0
200.053907 15.0
200.143988 14.0
201.068038 19.0
202.077789 39.0
203.147309 37.0
205.068881 17.0
205.105371 30.0
205.157281 26.0
207.033332 169.0
208.032493 12.0
209.028393 13.0
210.991734 27.0
215.082457 36.0
218.092709 9.0
219.09933 29.0
221.039401 14.0
223.176772 30.0
225.040713 28.0
226.077964 12.0
227.086565 9.0
228.865946 15.0
229.104606 10.0
232.124538 11.0
234.97347 21.0
237.116681 15.0
242.975155 19.0
244.085026 11.0
248.987029 20.0
250.96958 15.0
251.00992 11.0
252.172181 15.0
255.160023 13.0
265.024309 56.0
266.02357 13.0
266.93828 13.0
266.99592 23.0
268.000501 19.0
268.979662 15.0
270.066822 17.0
279.069018 15.0
281.051049 88.0
282.05044 21.0
283.097771 53.0
283.106011 174.0

