>compound 
>formula C30H48O6
>parentmass 505.35237026446
>ionization [M + H]+
>instrumentation Unknown (LCMS)
>source file:/Users/fanzhoukong/Documents/GitHub/Libgen/data/EAD_PFP/0_unknown_/spectrum.ms
>quality UNKNOWN

>ms2peaks
127.050122 79.0
128.061373 470.0
129.068814 240.0
130.063464 109.0
131.083235 152.0
132.018056 22.0
132.082226 61.0
133.101946 400.0
134.099507 27.0
135.113318 35.0
139.05649 83.0
140.050571 69.0
141.071482 370.0
142.073872 170.0
143.082173 172.0
144.087004 109.0
145.090604 118.0
145.102414 126.0
147.082136 72.0
147.101146 64.0
163.059946 72.0
164.059697 39.0
165.068828 537.0
166.075978 189.0
167.083669 169.0
168.06899 141.0
169.09927 201.0
170.103301 72.0
171.115432 167.0
172.111282 66.0
173.128083 256.0
174.101314 56.0
175.123964 78.0
175.136934 183.0
176.058595 78.0
177.054366 21.0
177.118246 79.0
177.167786 126.0
178.079106 255.0
179.081867 115.0
180.076938 70.0
180.088768 81.0
181.086638 69.0
181.097168 173.0
182.109729 72.0
183.11582 107.0
184.11405 79.0
185.130991 117.0
186.101282 33.0
186.137352 28.0
187.149132 335.0
188.126033 29.0
189.132414 1039.0
190.072594 80.0
191.030005 82.0
191.115325 98.0
192.083496 115.0
192.980616 193.0
193.097666 81.0
193.982147 33.0
194.100877 33.0
195.103928 44.0
196.078028 48.0
196.123309 64.0
197.116419 75.0
199.143421 167.0
199.153091 217.0
200.120601 26.0
201.165472 89.0
202.079363 136.0
203.140503 243.0
203.168433 491.0
204.078444 54.0
204.098044 45.0
205.119575 160.0
205.163055 102.0
206.109885 35.0
207.030686 165.0
208.114627 51.0
209.136217 67.0
211.134259 45.0
212.143239 29.0
213.1289 62.0
213.16322 104.0
214.078131 44.0
215.142981 174.0
216.089492 64.0
217.159333 242.0
218.094323 59.0
219.096604 20.0
219.137204 111.0
220.112795 45.0
221.154665 283.0
223.144757 20.0
225.045308 24.0
225.151128 25.0
227.176809 62.0
228.08429 30.0
229.106271 29.0
229.156701 94.0
230.097841 52.0
231.169002 60.0
232.111273 25.0
233.121283 20.0
235.158395 145.0
235.171915 141.0
236.146405 41.0
237.156096 23.0
239.174347 98.0
241.038409 20.0
241.158569 24.0
241.192029 36.0
242.105729 21.0
243.17236 26.0
244.109691 20.0
245.137791 19.0
247.166553 47.0
247.172713 153.0
248.076053 34.0
248.990324 30.0
249.185124 113.0
250.163415 31.0
251.173095 64.0
252.071266 28.0
253.084797 28.0
253.189227 34.0
254.190937 23.0
255.211848 38.0
257.148259 39.0
257.22367 36.0
258.12943 47.0
259.144021 47.0
259.208691 71.0
261.185492 126.0
265.022905 76.0
266.023755 26.0
266.994496 60.0
268.005507 29.0
269.084277 38.0
272.13967 12.0
275.194452 27.0
277.193683 68.0
279.079034 19.0
279.203424 57.0
281.054525 153.0
282.072046 58.0
283.053467 27.0
288.05936 30.0
289.181061 46.0
291.210332 34.0
293.065524 12.0
295.076385 26.0
295.229525 23.0
297.141366 40.0
297.224126 82.0
302.07905 23.0
303.23283 82.0
305.088232 58.0
305.134442 30.0
306.105482 33.0
308.158764 57.0
309.234484 28.0
311.087416 19.0
313.176377 12.0
315.107138 36.0
316.095629 12.0
318.21532 15.0
319.243671 36.0
322.132983 49.0
323.141224 23.0
327.230736 66.0
330.100708 34.0
332.11679 51.0
333.09405 18.0
335.239382 32.0
337.163113 23.0
343.266787 28.0
345.244329 12.0
347.28413 16.0
349.159711 21.0
351.130262 20.0
353.091654 18.0
353.262864 35.0
354.121415 29.0
355.268965 210.0
356.264906 65.0
357.067826 12.0
359.229478 28.0
360.147299 22.0
361.164929 23.0
362.1635 42.0
363.172751 26.0
364.187181 63.0
367.261463 63.0
369.278615 29.0
372.111537 28.0
373.274627 25.0
375.300629 53.0
377.29022 37.0
379.172541 27.0
380.333222 26.0
382.144593 15.0
383.200504 23.0
384.217535 12.0
387.309487 71.0
389.145088 19.0
389.278448 27.0
391.171029 36.0
392.20246 12.0
393.314891 282.0
394.319981 20.0
395.304882 54.0
397.174963 37.0
397.212043 37.0
399.252975 15.0
403.299357 28.0
405.316389 724.0
406.156999 40.0
407.16646 67.0
408.169271 206.0
409.179281 125.0
410.170672 218.0
410.188522 889.0
411.332113 32.0
413.167994 52.0
415.281396 54.0
417.210077 45.0
421.30801 84.0
422.30996 29.0
423.329221 426.0
425.286592 34.0
426.184023 49.0
427.191744 140.0
428.198644 562.0
430.228156 46.0
433.240668 50.0
433.299808 124.0
433.314088 175.0
435.427219 12.0
439.311592 90.0
439.315682 217.0
441.321973 39.0
441.340493 361.0
442.322704 12.0
445.205606 228.0
446.214856 683.0
447.171397 25.0
447.219067 21.0
451.3033 271.0
451.31993 544.0
452.27361 43.0
457.767264 43.0
459.344775 53.0
463.211878 135.0
464.220208 712.0
468.328181 54.0
469.329342 866.0
475.224276 18.0
482.22883 19.0
487.295264 223.0
487.327704 99.0
488.262374 23.0
505.142786 94.0
505.222036 490.0
505.252896 253.0
505.274896 755.0

