>compound 
>formula C34H28O22
>parentmass 811.0964435329801
>ionization [M + Na]+
>instrumentation Unknown (LCMS)
>source file:/Users/fanzhoukong/Documents/GitHub/Libgen/data/EAD_PFP/0_unknown_/spectrum.ms
>quality UNKNOWN

>ms2peaks
50.013832 115.0
51.02271 233.0
52.025418 38.0
53.037887 83.0
55.056463 262.0
57.068339 39.0
60.980633 16.0
62.012331 17.0
62.016191 29.0
63.023899 222.0
65.036845 174.0
65.038425 1187.0
66.043234 94.0
67.054142 185.0
68.02586 24.0
68.995618 147.0
70.063226 8.0
72.938271 14.0
74.015619 29.0
75.021078 41.0
76.031616 131.0
77.038604 486.0
78.041822 227.0
79.054151 314.0
80.052839 94.0
81.067497 43.0
81.071017 142.0
82.063695 23.0
83.082943 27.0
85.00658 14.0
86.016628 12.0
88.016935 12.0
89.036333 14.0
89.039103 216.0
90.045801 46.0
91.056289 980.0
92.055498 200.0
93.060156 50.0
93.068656 81.0
94.064564 49.0
95.047622 49.0
95.082012 25.0
98.022607 17.0
99.093355 13.0
99.992544 27.0
101.041472 21.0
102.04837 105.0
103.051308 180.0
104.050156 42.0
105.070885 183.0
106.063313 47.0
107.074591 45.0
108.075389 18.0
109.097208 34.0
110.999384 43.0
113.000251 66.0
115.051567 94.0
115.053667 478.0
116.057225 70.0
117.068323 114.0
118.061452 61.0
119.07695 57.0
119.08764 52.0
120.078548 32.0
121.091886 36.0
122.096485 23.0
126.038698 23.0
127.055846 110.0
128.061564 319.0
129.067892 81.0
130.06365 163.0
131.065479 41.0
131.074459 60.0
132.017107 21.0
132.071147 35.0
133.003815 13.0
133.091955 26.0
134.095143 64.0
139.054365 52.0
140.053063 30.0
141.064661 59.0
141.92579 18.0
142.071699 59.0
143.072968 71.0
144.077746 50.0
145.075404 32.0
145.097834 44.0
145.967612 23.0
146.095472 17.0
147.966329 18.0
151.055463 35.0
152.056442 48.0
152.066122 91.0
153.06679 38.0
154.065868 69.0
155.077966 36.0
156.079915 40.0
157.083873 29.0
158.100881 72.0
160.116257 30.0
164.05728 35.0
165.068899 155.0
166.065967 25.0
167.073625 52.0
168.079243 64.0
169.070052 19.0
169.095532 32.0
171.082178 27.0
171.095018 20.0
172.083076 23.0
172.113936 22.0
173.130714 14.0
174.105263 26.0
175.000871 26.0
176.066459 29.0
177.067457 19.0
178.071306 45.0
179.079294 30.0
180.100662 42.0
180.989151 15.0
181.08273 47.0
182.085979 22.0
182.191748 34.0
183.098627 23.0
184.112755 22.0
186.129361 13.0
189.067776 55.0
190.076675 40.0
190.996183 59.0
192.075351 19.0
192.090291 15.0
192.984719 63.0
193.991698 36.0
194.096787 22.0
196.091754 17.0
196.106844 24.0
197.112322 11.0
200.066547 14.0
202.083533 37.0
203.080442 36.0
204.07983 30.0
205.083068 33.0
205.153208 23.0
207.036315 84.0
208.032643 34.0
209.022861 19.0
210.994738 14.0
213.138874 12.0
215.08403 22.0
217.088537 19.0
218.085605 19.0
220.082222 36.0
225.040823 16.0
226.073651 17.0
229.134376 33.0
233.110708 21.0
239.092438 20.0
240.172166 19.0
242.984381 21.0
244.092729 15.0
248.98864 20.0
250.989787 23.0
253.973742 14.0
265.017942 31.0
266.997529 53.0
281.051024 99.0
282.052062 25.0
471.040778 21.0
471.068418 21.0
472.059726 23.0
473.079775 15.0
489.054256 7.0
597.095326 39.0
627.073183 6.0
640.05778 34.0
640.07017 41.0
641.079258 175.0
656.065321 27.0
657.07185 22.0
658.079228 27.0
659.072206 26.0
659.099856 72.0
776.140849 6.0
794.092118 26.0
809.074571 69.0
810.100259 399.0
811.101548 1308.0

