>compound 
>formula C17H24O4
>parentmass 315.1566802518
>ionization [M + Na]+
>instrumentation Unknown (LCMS)
>source file:/Users/fanzhoukong/Documents/GitHub/Libgen/data/EAD_PFP/0_unknown_/spectrum.ms
>quality UNKNOWN

>ms2peaks
50.015302 163.0
51.022813 351.0
52.030474 61.0
53.038006 104.0
55.052968 238.0
56.05107 25.0
57.069241 313.0
57.935392 28.0
58.071182 102.0
59.049474 19.0
60.983896 130.0
62.012548 33.0
63.022579 193.0
65.039462 857.0
66.041903 134.0
67.052004 330.0
68.047956 47.0
68.996727 83.0
69.068347 221.0
70.038108 23.0
70.073368 22.0
71.08648 155.0
72.087721 93.0
74.013423 23.0
75.022275 79.0
76.037106 663.0
77.038107 915.0
78.043929 171.0
79.05541 317.0
80.053231 61.0
81.069663 308.0
82.064114 36.0
83.085155 118.0
84.087357 32.0
85.100078 85.0
86.098869 27.0
86.102509 80.0
87.013001 16.0
88.030272 20.0
89.039593 207.0
90.042575 38.0
91.053986 1265.0
92.057887 212.0
92.993588 52.0
93.069179 162.0
94.0613 41.0
95.070131 173.0
95.083501 121.0
96.088193 69.0
97.100084 69.0
98.103695 20.0
99.115387 24.0
100.121498 20.0
101.061759 16.0
102.04303 80.0
103.055892 135.0
104.062763 30.0
105.069504 296.0
106.067986 41.0
107.080307 76.0
108.069928 34.0
109.08765 41.0
109.0989 93.0
110.106011 57.0
111.042392 28.0
112.999915 76.0
113.021785 33.0
115.052278 431.0
116.048449 20.0
116.061119 106.0
117.06058 114.0
118.066452 70.0
119.085183 131.0
121.099116 64.0
122.097267 20.0
123.114718 55.0
124.12003 28.0
126.043902 42.0
127.053354 179.0
128.063495 521.0
129.068726 97.0
130.072318 75.0
130.990069 31.0
131.062969 101.0
131.076419 29.0
131.084279 90.0
132.0191 34.0
132.07539 29.0
133.070211 55.0
133.088291 57.0
133.100752 69.0
134.060863 12.0
135.113234 43.0
137.061687 61.0
137.130507 18.0
138.134968 25.0
139.062199 32.0
141.070222 124.0
141.927893 14.0
142.080813 62.0
143.082115 58.0
144.078696 29.0
145.081097 97.0
147.09037 20.0
147.1177 69.0
147.963741 26.0
149.072833 61.0
149.131443 18.0
150.026414 36.0
151.032415 58.0
151.050465 63.0
152.061087 284.0
153.067818 217.0
154.069329 49.0
154.082709 46.0
155.069251 53.0
155.085111 55.0
156.094432 33.0
157.078773 70.0
157.097193 74.0
158.082245 25.0
158.094555 22.0
158.110565 34.0
159.087656 51.0
159.097546 96.0
159.119776 95.0
160.061557 22.0
161.090649 26.0
161.099349 94.0
162.997351 16.0
163.052371 56.0
163.072391 68.0
164.063422 48.0
165.068764 60.0
165.083864 552.0
166.070865 52.0
167.086146 91.0
168.082928 31.0
169.063559 15.0
169.078849 62.0
169.103049 53.0
170.07386 25.0
171.102572 54.0
172.093243 49.0
172.109953 35.0
173.090654 76.0
173.133184 169.0
175.082427 52.0
175.110947 32.0
175.143357 31.0
176.062448 48.0
177.07258 42.0
177.09212 60.0
178.075131 125.0
179.087072 126.0
180.072964 38.0
180.090054 68.0
181.065515 45.0
181.089225 60.0
182.084576 37.0
183.106508 50.0
183.119768 35.0
185.10429 36.0
185.12296 64.0
186.134642 24.0
187.088813 44.0
187.111573 96.0
187.147773 32.0
188.070914 16.0
189.069085 37.0
189.081196 63.0
189.091976 54.0
189.124306 28.0
190.071217 22.0
190.998838 45.0
191.055708 26.0
192.071249 30.0
192.086179 21.0
192.981941 26.0
193.085381 31.0
194.070832 31.0
195.079283 34.0
195.098433 113.0
195.113483 64.0
196.091725 47.0
197.098546 34.0
197.112296 34.0
197.137036 18.0
199.121279 68.0
199.150299 38.0
201.115441 38.0
201.158511 18.0
202.059853 25.0
202.103023 17.0
203.083244 44.0
204.078445 20.0
205.095697 60.0
205.119547 34.0
206.107058 20.0
207.032089 71.0
207.058879 32.0
208.089171 54.0
209.100802 43.0
209.131972 49.0
210.072273 48.0
211.098655 69.0
211.149905 30.0
212.096156 25.0
213.094577 25.0
213.110317 42.0
213.148917 14.0
215.08409 27.0
215.11569 31.0
216.085171 18.0
217.098703 33.0
218.101574 17.0
219.122715 72.0
219.134305 75.0
221.103668 20.0
222.105539 38.0
223.111101 397.0
224.077902 24.0
224.120432 56.0
225.089413 162.0
226.076674 25.0
227.107436 39.0
227.114816 34.0
229.124078 33.0
229.195269 19.0
231.082631 20.0
233.082414 24.0
233.170654 23.0
237.112379 28.0
237.141029 24.0
238.10295 31.0
239.097122 46.0
239.106202 100.0
240.114603 203.0
241.084064 38.0
241.108394 61.0
243.111297 27.0
245.11634 17.0
247.112692 29.0
247.135792 62.0
251.098618 28.0
251.121918 62.0
251.163818 72.0
251.180888 117.0
252.113309 101.0
253.08797 44.0
253.11446 55.0
254.092611 52.0
255.141463 926.0
255.864904 16.0
256.109414 33.0
257.126315 23.0
257.168736 38.0
259.093608 19.0
259.137768 25.0
259.170878 19.0
261.188701 19.0
262.218822 20.0
265.021346 23.0
265.129806 18.0
266.105307 24.0
267.105029 49.0
268.1082 344.0
269.119681 61.0
269.177541 75.0
269.185601 145.0
269.203271 190.0
270.084803 31.0
271.175804 22.0
272.144585 26.0
273.183097 18.0
279.203495 26.0
281.051307 106.0
281.112097 25.0
282.052348 25.0
282.118169 65.0
283.13761 450.0
284.104381 58.0
285.110852 87.0
285.181953 15.0
287.157335 24.0
287.246995 23.0
297.175228 95.0
297.192108 98.0
298.12338 29.0
299.125551 131.0
313.15743 23.0
314.122031 13.0
315.169852 749.0
315.190722 297.0
315.222032 64.0

