>compound 
>formula C22H32O2
>parentmass 329.2475112705
>ionization [M + H]+
>instrumentation Unknown (LCMS)
>source file:/Users/fanzhoukong/Documents/GitHub/Libgen/data/EAD_PFP/0_unknown_/spectrum.ms
>quality UNKNOWN

>ms2peaks
50.016515 146.0
51.025422 645.0
52.0331 19.0
53.039207 120.0
55.054892 747.0
56.880387 20.0
57.073387 2066.0
59.051401 31.0
62.063093 50.0
63.019851 75.0
65.036666 248.0
65.039036 442.0
66.045433 31.0
67.05716 1064.0
68.031318 19.0
69.074365 3678.0
70.571501 25.0
71.08678 152.0
74.014542 14.0
75.02339 51.0
76.034787 44.0
77.041794 3830.0
78.047622 124.0
79.054759 1677.0
80.045556 27.0
80.064836 21.0
81.072514 1325.0
82.066961 14.0
82.078501 25.0
83.088908 2150.0
84.033636 23.0
85.100243 49.0
87.029588 13.0
89.041563 95.0
90.04641 40.0
91.055028 2495.0
92.057975 74.0
93.066432 219.0
93.073042 1283.0
94.04047 47.0
95.086427 715.0
97.104952 471.0
98.109549 28.0
98.986717 1069.0
101.039111 13.0
102.044019 48.0
103.057866 1206.0
104.060744 55.0
105.075501 2067.0
106.079038 68.0
106.699437 31.0
106.708547 45.0
107.039706 34.0
107.055926 5465.0
107.929383 41.0
108.086163 88.0
109.06609 87.0
109.09576 216.0
111.119735 690.0
114.045637 20.0
115.057405 4558.0
116.066252 707.0
117.072089 1095.0
118.063107 54.0
118.076937 40.0
119.048674 33.0
119.066844 200.0
119.088224 826.0
120.057662 94.0
120.085572 22.0
120.64121 34.0
121.069829 7357.0
122.067846 36.0
122.082996 21.0
122.911334 21.0
123.115604 314.0
123.586702 15.0
123.915812 21.0
125.037169 22.0
125.137968 7783.0
126.032676 50.0
126.048076 153.0
127.057523 966.0
128.064351 2114.0
129.071808 946.0
130.073165 100.0
131.054833 79.0
131.062693 379.0
131.082873 777.0
132.06046 279.0
132.607009 19.0
133.064268 573.0
133.069938 2074.0
134.071895 75.0
134.078685 105.0
135.083312 1301.0
137.133617 1183.0
137.955065 51.0
139.054922 25.0
141.074517 970.0
142.081594 297.0
144.059479 747.0
144.649157 22.0
145.067706 1961.0
146.073534 510.0
147.081641 6045.0
147.969259 17.0
148.090828 45.0
148.249428 21.0
148.583577 55.0
148.607457 147.0
148.628977 58.0
149.102266 14459.0
150.016363 119.0
150.082373 125.0
150.180793 80.0
151.054821 29.0
151.15356 368.0
152.063028 487.0
152.066668 642.0
153.072165 1280.0
154.079783 518.0
155.07119 233.0
155.08828 961.0
156.097587 168.0
157.067215 448.0
157.077045 317.0
157.094225 256.0
158.074322 673.0
159.08589 3172.0
160.092007 214.0
161.101274 4542.0
162.102512 98.0
162.59555 21.0
163.109349 19008.0
164.118036 20.0
165.065664 166.0
165.075724 157.0
166.077861 26.0
167.084279 64.0
167.095659 83.0
167.990876 154.0
168.093756 137.0
168.743374 18.0
169.079493 25.0
169.102413 262.0
170.079631 72.0
171.104498 205.0
171.118588 238.0
172.088755 89.0
173.099023 2051.0
174.10707 55.0
175.115458 3097.0
177.086222 114.0
177.104472 431.0
177.112302 527.0
177.127942 268.0
178.07835 64.0
179.069327 28.0
179.109957 22.0
180.093275 20.0
181.099062 33.0
182.104989 40.0
182.607678 82.0
183.076597 33.0
183.112387 70.0
184.089334 44.0
184.665303 26.0
185.094191 74.0
185.106191 120.0
185.134191 96.0
186.097799 60.0
186.107149 33.0
187.116166 925.0
188.122523 237.0
188.519102 16.0
189.128881 6916.0
190.142008 17.0
190.493367 19.0
191.110396 1596.0
191.642994 21.0
192.985201 33.0
193.075021 33.0
194.099998 15.0
196.115563 19.0
197.12103 25.0
197.13205 66.0
198.107037 30.0
199.114855 121.0
200.119682 21.0
201.128429 1022.0
202.136917 251.0
203.143754 742.0
205.120019 110.0
205.135449 2618.0
205.149469 1335.0
205.159299 424.0
206.529645 27.0
207.033954 27.0
207.119944 16.0
208.188561 16.0
210.040056 8.0
211.126143 20.0
211.148903 55.0
213.130748 86.0
213.166498 30.0
214.375335 25.0
214.827394 23.0
215.143383 462.0
216.13885 35.0
216.15182 117.0
217.120758 31.0
217.127958 159.0
217.142388 259.0
217.152487 110.0
217.161177 114.0
219.141962 65.0
219.172402 20.0
220.868138 8.0
222.149704 8.0
223.168542 8.0
225.163247 26.0
226.088804 12.0
227.141741 21.0
227.172731 47.0
229.161496 347.0
231.148491 770.0
232.111608 18.0
233.159016 61.0
239.17465 11.0
241.198415 20.0
243.157369 102.0
243.180289 233.0
244.175797 35.0
244.184987 105.0
244.393216 29.0
245.196344 10335.0
246.159082 27.0
246.431191 23.0
247.172979 53.0
251.179558 13.0
253.197263 76.0
254.46145 34.0
255.177658 44.0
255.190178 84.0
257.124933 23.0
257.190913 19.0
262.21581 10.0
268.214204 12.0
268.271944 27.0
269.187311 100.0
269.200161 87.0
269.229091 28.0
271.213036 577.0
272.206103 20.0
273.186421 27.0
279.210085 8.0
281.0563 15.0
285.225019 147.0
286.233447 252.0
287.228744 1575.0
287.233714 4698.0
295.212753 15.0
297.075548 15.0
311.237741 67.0
312.287668 31.0
313.216246 41.0
313.261326 8.0
328.239737 26.0
329.232624 39.0
329.246844 403.0

