>compound 
>formula C11H18O5
>parentmass 253.10464467799
>ionization [M + Na]+
>instrumentation Unknown (LCMS)
>source file:/Users/fanzhoukong/Documents/GitHub/Libgen/data/EAD_PFP/0_unknown_/spectrum.ms
>quality UNKNOWN

>ms2peaks
50.014177 342.0
51.022387 665.0
52.029338 177.0
53.038288 180.0
54.033878 35.0
55.051088 96.0
55.053268 290.0
56.049169 56.0
57.065099 50.0
57.936449 30.0
59.050539 51.0
60.98498 21.0
62.0121 38.0
63.02213 364.0
64.02934 150.0
65.03979 1048.0
66.044631 160.0
67.053951 355.0
68.054771 42.0
68.994631 138.0
69.032071 37.0
71.047192 72.0
72.936452 20.0
74.011272 22.0
75.007383 64.0
76.028083 120.0
77.041933 1204.0
78.043453 331.0
79.054923 533.0
80.050124 177.0
81.067414 214.0
81.070064 467.0
82.064504 53.0
83.053414 30.0
85.025495 77.0
86.016585 25.0
87.019805 13.0
89.035385 30.0
89.038165 243.0
90.047656 46.0
91.056286 899.0
92.046096 276.0
93.035596 894.0
94.059827 49.0
95.052417 202.0
97.031037 1314.0
98.094437 31.0
98.981298 20.0
99.992598 28.0
102.043488 105.0
103.047398 140.0
104.056229 43.0
105.071979 217.0
106.062399 58.0
107.070639 28.0
108.073459 36.0
109.09631 32.0
111.04493 96.0
112.01327 19.0
113.021221 33.0
113.962561 24.0
115.050671 249.0
115.056971 605.0
117.066371 198.0
118.065882 36.0
119.084612 133.0
120.057262 40.0
121.030632 1292.0
125.097063 41.0
126.046613 43.0
127.051653 90.0
128.062894 413.0
129.069264 195.0
130.058324 54.0
130.066134 117.0
131.053394 76.0
131.066854 109.0
132.022995 33.0
132.066915 129.0
132.087155 60.0
133.027815 336.0
133.094485 21.0
134.034165 22.0
134.104495 31.0
135.077315 49.0
135.118315 30.0
137.097776 37.0
138.126286 32.0
139.048876 86.0
140.048726 32.0
141.062626 122.0
141.069616 217.0
141.927267 13.0
142.063847 36.0
142.070847 86.0
143.070937 37.0
144.075717 30.0
144.080417 31.0
145.080467 60.0
145.104067 75.0
146.074498 12.0
146.099368 16.0
147.039848 24.0
147.106378 34.0
147.120638 52.0
149.094918 28.0
150.044968 13.0
151.040179 190.0
152.060449 113.0
153.068369 85.0
154.068689 62.0
155.083229 37.0
157.09531 29.0
157.10023 57.0
158.09635 15.0
159.129 19.0
160.11172 18.0
161.097431 87.0
163.052951 16.0
163.111751 30.0
165.056752 47.0
165.070592 181.0
166.068932 72.0
167.070272 33.0
167.084202 90.0
168.068272 46.0
168.080972 94.0
169.074332 44.0
170.085943 52.0
170.103843 29.0
171.048063 48.0
171.077543 45.0
172.113103 25.0
173.113153 13.0
173.132483 36.0
174.061793 30.0
175.111534 108.0
175.132294 67.0
176.061744 64.0
176.107254 12.0
177.087524 68.0
177.125314 34.0
177.138344 26.0
178.073114 179.0
179.088984 81.0
180.080135 37.0
180.988335 18.0
181.083245 55.0
182.091775 32.0
182.189635 21.0
183.032875 35.0
183.108445 21.0
184.103986 18.0
185.131556 19.0
186.101846 14.0
186.128586 24.0
188.046006 14.0
188.058086 32.0
189.062937 190.0
190.073177 39.0
190.992677 19.0
191.084757 70.0
192.979837 47.0
193.004327 36.0
193.046527 82.0
194.091908 55.0
195.105898 40.0
196.112918 20.0
197.115658 36.0
199.041729 64.0
199.145399 138.0
200.054689 19.0
202.073009 39.0
203.03362 16.0
203.1425 63.0
204.07906 24.0
205.14263 27.0
205.15807 39.0
206.09784 39.0
207.02989 148.0
207.10037 35.0
208.054481 37.0
208.109591 17.0
209.013611 21.0
209.037691 17.0
209.071691 24.0
211.060851 18.0
213.068032 14.0
214.075882 20.0
216.094442 14.0
217.048812 296.0
217.155633 86.0
219.116093 22.0
220.110543 32.0
222.123674 15.0
223.098574 45.0
223.133684 23.0
225.048894 29.0
228.095295 19.0
230.091075 25.0
231.105615 18.0
232.164176 8.0
234.101176 17.0
235.133526 79.0
235.168086 119.0
238.159527 37.0
241.195748 28.0
242.977548 32.0
243.108878 8.0
244.121088 8.0
247.119499 15.0
248.989469 33.0
251.00303 25.0
253.10264 632.0

