>compound 
>formula C15H26O2
>parentmass 239.20056107712
>ionization [M + H]+
>instrumentation Unknown (LCMS)
>source file:/Users/fanzhoukong/Documents/GitHub/Libgen/data/EAD_PFP/0_unknown_/spectrum.ms
>quality UNKNOWN

>ms2peaks
50.01532 78.0
51.022817 265.0
52.029765 29.0
53.038702 51.0
55.055847 218.0
55.934475 16.0
56.051025 11.0
56.964883 28.0
57.034403 9.0
57.071403 81.0
57.93459 66.0
59.049398 66.0
59.931145 6.0
60.984563 35.0
62.0163 22.0
63.023238 163.0
64.021045 10.0
64.028095 6.0
65.040113 818.0
66.03777 24.0
66.04573 39.0
67.055058 241.0
68.046176 5.0
68.994103 93.0
69.069803 117.0
71.049118 50.0
72.936713 5.0
73.048023 70.0
74.014891 20.0
75.005078 7.0
75.021198 38.0
76.030886 55.0
77.039573 663.0
78.039341 22.0
78.044541 73.0
79.055138 223.0
80.049446 13.0
80.054706 37.0
81.070253 252.0
82.065581 5.0
83.083949 38.0
84.957934 15.0
85.064514 64.0
86.014021 6.0
87.019049 6.0
87.043729 7.0
89.041074 98.0
90.044061 29.0
91.054539 1336.0
91.903417 6.0
92.058436 137.0
93.068784 166.0
94.063731 24.0
95.084999 261.0
95.952407 17.0
96.079117 10.0
97.064894 20.0
97.088064 12.0
97.099644 12.0
97.950002 17.0
98.975519 48.0
102.047502 29.0
103.053419 87.0
104.059267 33.0
105.034864 15.0
105.048914 199.0
105.061974 20.0
105.072014 47.0
106.067462 30.0
107.084849 136.0
109.101424 194.0
110.032492 6.0
111.08106 33.0
112.001857 7.0
113.000375 28.0
113.096205 6.0
114.035752 8.0
115.05589 244.0
116.056297 12.0
116.059457 58.0
117.066325 67.0
118.070092 16.0
119.08669 263.0
120.080817 25.0
120.091547 6.0
121.102785 168.0
122.092282 8.0
123.08037 46.0
123.11406 32.0
124.999475 5.0
125.094775 37.0
125.979443 5.0
126.046523 18.0
126.903631 7.0
127.05707 53.0
128.060578 203.0
129.066915 61.0
130.062663 41.0
130.993851 50.0
131.04878 6.0
131.08691 32.0
132.009358 10.0
132.081398 9.0
133.088685 14.0
133.102255 133.0
134.096413 7.0
135.11816 31.0
137.095316 31.0
137.118256 6.0
137.130875 13.0
139.052181 23.0
140.049698 12.0
140.996146 5.0
141.072926 49.0
142.070643 15.0
142.077663 7.0
143.062541 5.0
143.078941 6.0
144.083738 15.0
145.081446 6.0
145.968934 16.0
147.119231 122.0
147.962879 25.0
149.039656 6.0
149.059976 11.0
149.132966 20.0
150.048334 10.0
151.054391 27.0
151.115811 17.0
152.063799 152.0
153.069326 71.0
154.075714 52.0
154.990262 5.0
155.073211 22.0
155.085401 43.0
156.081259 19.0
157.077846 9.0
157.098716 35.0
158.065284 11.0
158.093614 14.0
159.116371 47.0
160.084149 6.0
160.116379 12.0
161.131956 149.0
162.045984 7.0
162.133284 6.0
163.053892 23.0
163.075162 12.0
163.150231 47.0
164.062419 23.0
165.074057 132.0
165.124407 6.0
166.071134 26.0
166.074924 28.0
167.072482 32.0
167.083872 47.0
168.070479 10.0
168.093329 12.0
169.080357 14.0
169.102017 39.0
170.092004 9.0
171.095132 15.0
171.105362 6.0
172.097339 5.0
172.111469 5.0
174.066605 6.0
175.148772 64.0
176.06268 17.0
177.064957 6.0
177.162737 21.0
178.079275 60.0
179.085972 18.0
179.109562 7.0
180.07843 21.0
180.09288 17.0
181.094707 18.0
182.101955 16.0
183.118622 45.0
184.07035 5.0
185.131137 12.0
187.051463 7.0
188.05363 5.0
189.070598 23.0
190.067335 15.0
190.078125 22.0
191.003063 35.0
192.08226 10.0
192.976668 21.0
192.984828 26.0
193.099158 6.0
193.154968 10.0
193.978176 11.0
194.060055 5.0
194.094175 8.0
195.105413 9.0
196.08637 12.0
196.10833 6.0
197.094548 6.0
197.131688 41.0
202.076676 24.0
203.142003 10.0
203.160143 28.0
203.179693 71.0
204.081341 8.0
204.18072 10.0
205.085998 7.0
206.083246 8.0
207.030773 64.0
208.035591 16.0
208.110481 6.0
209.000319 7.0
209.103718 6.0
210.068096 8.0
211.077393 6.0
211.147133 10.0
212.995979 6.0
213.074619 6.0
215.084144 15.0
217.085749 7.0
218.077026 11.0
218.094386 8.0
219.086514 6.0
221.083319 16.0
221.105169 5.0
221.119739 20.0
221.188209 51.0
222.088046 5.0
222.127456 5.0
223.111144 8.0
224.157111 6.0
228.093202 6.0
230.097847 5.0
232.108302 6.0
237.088209 10.0
238.071177 19.0
239.072855 264.0
239.095575 16.0
239.166764 17.0
239.178884 27.0

