>compound 
>formula C6H14N4O2
>parentmass 175.118942260742
>ionization [M + H]+
>instrumentation Unknown (LCMS)
>source file:/Users/fanzhoukong/Documents/GitHub/Libgen/data/NIST_MONA/0_unknown_/spectrum.ms
>quality UNKNOWN

>ms2peaks
41.03833 1.042666
43.05302 2.108303
60.05543 52.47131
68.04861 1.586559
70.06532 58.72075
72.08088 3.299453
85.07592 2.315852
89.06078 2.557035
112.0873 8.187925
114.1025 1.632499
115.0866 1.374909
116.071 31.0585
117.0745 2.116506
130.0979 16.97061
131.1008 1.210018
157.1089 3.278124
158.0934 16.9985
159.0963 1.425771
175.119 100.0
176.1232 7.668643

