>compound 
>formula C21H26O6
>parentmass 392.2067595554001
>ionization [M + H3N + H]+
>instrumentation Unknown (LCMS)
>source file:/Users/fanzhoukong/Documents/GitHub/Libgen/data/EAD_PFP/0_unknown_/spectrum.ms
>quality UNKNOWN

>ms2peaks
77.023395 58.0
77.034575 72.0
95.04071 65.0
95.05312 81.0
104.724689 44.0
105.033692 2401.0
106.041091 28.0
107.04519 41.0
110.035508 33.0
114.053535 44.0
115.053804 5270.0
116.061603 359.0
116.692519 35.0
117.068502 2659.0
118.041421 59.0
119.04937 290.0
119.062201 49.0
119.085711 63.0
121.049009 35.0
121.065179 64.0
121.098599 31.0
122.041548 34.0
122.620143 69.0
122.633163 132.0
122.648354 168.0
122.658114 53.0
122.750354 64.0
122.891486 34.0
123.049007 23480.0
123.634343 23.0
124.045336 55.0
124.051876 1281.0
124.288759 55.0
125.212237 73.0
126.043435 49.0
127.049574 134.0
127.055094 177.0
128.061943 138.0
128.574608 91.0
129.069412 39.0
131.041231 73.0
133.065299 49.0
135.453531 216.0
136.052767 109.0
137.060156 323.0
138.231327 185.0
138.859752 67.0
139.066464 48.0
141.069883 392.0
142.082822 27.0
143.050141 101.0
143.085301 162.0
144.05722 461.0
144.06662 311.0
144.596245 34.0
145.066629 9838.0
146.074849 657.0
147.079398 2951.0
148.050447 323.0
148.092187 67.0
148.573012 56.0
149.065366 12790.0
150.060955 78.0
150.066945 252.0
150.083745 53.0
151.076695 875.0
151.109205 63.0
152.063254 230.0
153.071203 367.0
154.077602 259.0
154.543686 26.0
155.049511 54.0
155.071461 92.0
155.084881 243.0
156.08075 46.0
157.065069 612.0
157.08593 428.0
158.072199 501.0
159.104768 7113.0
159.114658 3086.0
160.060147 89.0
160.078727 144.0
160.087407 183.0
161.058156 258.0
161.068106 609.0
161.094206 165.0
162.067985 617.0
162.536 86.0
162.54724 78.0
162.56473 61.0
163.079745 14923.0
164.058244 78.0
164.085864 124.0
164.167435 153.0
165.053523 1050.0
165.424996 41.0
166.058122 88.0
166.078322 48.0
167.058181 67.0
167.084761 184.0
169.09912 1572.0
170.052059 30.0
171.081988 553.0
172.084177 181.0
173.093157 1212.0
174.066316 40.0
175.070715 149.0
175.075895 356.0
175.094045 365.0
176.084504 332.0
176.130005 49.0
177.092093 2946.0
178.073792 60.0
178.099933 774.0
179.081822 211.0
179.092282 252.0
179.109342 203.0
181.05892 33.0
181.06813 120.0
182.071359 26.0
183.080008 67.0
184.095428 29.0
185.096327 675.0
186.103946 31.0
186.114646 53.0
186.48637 47.0
186.49303 94.0
187.115645 18891.0
188.080374 26.0
188.175775 58.0
188.381437 61.0
189.092044 700.0
190.102353 1050.0
191.105882 4428.0
192.109341 131.0
192.113411 363.0
193.123601 247.0
194.636324 82.0
195.076658 69.0
197.060147 71.0
197.097267 43.0
199.059215 36.0
199.073025 85.0
201.082244 109.0
201.090594 135.0
202.078103 36.0
203.109942 1128.0
204.109401 94.0
204.116391 114.0
204.455245 72.0
205.126751 17393.0
206.418193 61.0
207.102769 27.0
207.121109 81.0
207.880296 35.0
209.064197 86.0
210.066816 25.0
211.078955 54.0
213.054774 135.0
213.086234 117.0
215.054162 27.0
215.071402 88.0
215.092952 148.0
215.104452 66.0
217.109071 34.0
219.089649 87.0
223.074856 43.0
227.069412 193.0
227.103343 128.0
229.121481 70.0
231.066619 37.0
233.093287 63.0
233.115718 170.0
235.106246 69.0
235.113746 55.0
237.090164 78.0
237.096184 141.0
239.105133 86.0
240.098352 29.0
241.198602 79.0
242.12604 30.0
245.081558 324.0
250.089594 36.0
251.116213 213.0
251.145713 340.0
253.125911 262.0
255.10447 42.0
255.12951 46.0
255.14047 80.0
261.102255 86.0
261.132315 236.0
267.13927 56.0
268.147359 53.0
269.155699 710.0
279.13712 1774.0
285.152955 29.0
296.126596 35.0
297.142316 821.0
297.154126 5197.0
298.087034 37.0
313.137582 45.0
314.150772 554.0
315.163881 13968.0
316.16813 26.0
332.187627 32.0
340.941578 12.0
356.142407 58.0
356.172007 57.0
392.190558 73.0
392.211888 56.0
392.256539 95.0

