>compound 
>formula C20H26O6
>parentmass 363.1802195554001
>ionization [M + H]+
>instrumentation Unknown (LCMS)
>source file:/Users/fanzhoukong/Documents/GitHub/Libgen/data/EAD_PFP/0_unknown_/spectrum.ms
>quality UNKNOWN

>ms2peaks
50.016279 124.0
51.023089 412.0
52.030038 64.0
53.036837 17.0
54.035287 8.0
55.019056 11.0
55.055396 76.0
55.934755 8.0
56.056435 7.0
57.033945 8.0
57.069465 21.0
58.066914 9.0
60.984852 48.0
62.016581 27.0
63.023521 166.0
64.02995 8.0
65.040399 806.0
66.043639 38.0
67.054548 213.0
68.027077 21.0
68.995217 98.0
69.070097 6.0
70.065276 8.0
71.050235 25.0
72.937844 13.0
74.016033 31.0
75.024893 42.0
76.031182 76.0
77.039881 875.0
78.043971 120.0
79.05457 238.0
80.057639 25.0
81.070569 94.0
82.070328 10.0
83.049437 14.0
84.082857 15.0
86.016145 7.0
87.082435 16.0
88.031154 13.0
89.038623 172.0
90.042523 19.0
90.757842 7.0
91.055792 1476.0
92.058761 143.0
93.067211 25.0
95.049029 65.0
95.953699 10.0
96.083289 6.0
97.029518 23.0
99.007037 5.0
99.047007 8.0
99.994956 13.0
101.030105 13.0
102.048825 90.0
103.054744 200.0
104.050613 20.0
105.072353 113.0
106.066792 15.0
107.050721 14.0
107.087211 18.0
108.057521 7.0
109.07312 15.0
110.998819 12.0
112.002198 5.0
113.003847 33.0
114.045517 11.0
115.055186 972.0
116.062975 114.0
117.070915 289.0
118.062994 10.0
118.068314 48.0
119.050703 13.0
119.073153 28.0
119.084913 41.0
120.056483 8.0
120.080093 11.0
121.065412 43.0
123.043771 13.0
123.081811 37.0
125.095139 38.0
126.047979 54.0
127.055228 267.0
128.063157 565.0
129.072837 160.0
130.067496 46.0
131.052505 136.0
131.068215 51.0
131.085045 15.0
132.062645 34.0
133.066454 35.0
133.078894 8.0
133.102614 14.0
135.046813 30.0
139.05601 15.0
140.053559 12.0
141.070969 174.0
141.928618 13.0
142.079208 24.0
143.085187 109.0
144.057077 35.0
145.065306 394.0
145.968115 21.0
146.074675 15.0
147.056645 36.0
147.074475 43.0
147.092275 15.0
147.971614 9.0
149.061573 59.0
149.097453 25.0
150.046313 20.0
151.054782 45.0
151.071632 12.0
152.062991 189.0
153.069711 110.0
154.06516 33.0
154.07611 24.0
155.057739 51.0
155.067489 71.0
156.058399 13.0
156.074309 12.0
157.065968 115.0
157.074558 33.0
158.074297 13.0
158.089077 25.0
159.050037 13.0
159.069807 29.0
159.082157 158.0
160.051076 78.0
160.075866 12.0
161.058985 29.0
161.072675 27.0
161.083865 25.0
161.097535 50.0
163.061814 40.0
163.076814 73.0
164.064083 20.0
165.068173 103.0
166.071532 33.0
167.076681 47.0
167.088071 44.0
167.100731 61.0
168.059461 14.0
168.074691 16.0
168.092481 12.0
169.06677 178.0
170.074519 32.0
170.096249 18.0
171.081449 314.0
172.051488 157.0
173.060357 1028.0
174.069597 55.0
175.076586 141.0
176.048785 18.0
177.058875 29.0
177.079735 6.0
177.091455 32.0
178.078374 29.0
179.066733 9.0
179.071963 23.0
180.080153 18.0
181.070082 19.0
181.089842 8.0
182.093121 8.0
182.102391 17.0
183.080611 24.0
183.092541 9.0
184.05083 9.0
184.09733 10.0
185.062249 17.0
185.080919 19.0
185.094239 44.0
186.069779 25.0
187.077348 332.0
188.083617 86.0
189.088527 422.0
191.002136 9.0
191.069835 34.0
192.082695 9.0
192.987974 23.0
193.061474 10.0
193.090054 16.0
194.076853 7.0
194.095973 8.0
195.083963 13.0
195.109943 8.0
196.086812 7.0
197.063341 42.0
197.101861 9.0
198.069891 31.0
199.06517 69.0
199.07483 250.0
200.115599 6.0
201.052099 24.0
201.088219 16.0
202.064588 13.0
202.078508 20.0
202.092438 10.0
203.072637 31.0
203.096357 24.0
203.108937 51.0
204.078977 10.0
205.086426 109.0
206.092135 45.0
207.098895 94.0
208.040264 10.0
209.064493 7.0
209.102753 11.0
211.076412 17.0
213.090801 73.0
214.06719 28.0
215.05586 10.0
215.071659 210.0
216.077049 385.0
217.087658 1133.0
218.057248 12.0
218.083277 7.0
219.068117 12.0
220.074076 11.0
221.082325 30.0
221.109995 13.0
223.073564 8.0
223.110144 10.0
224.119453 12.0
225.056093 7.0
225.094303 12.0
225.125173 24.0
227.066572 9.0
227.073962 9.0
229.086 69.0
230.08199 9.0
230.095369 18.0
231.100969 188.0
233.084378 892.0
234.090497 130.0
235.091276 7.0
239.144523 12.0
240.077113 9.0
241.087532 53.0
242.116861 7.0
242.130571 17.0
242.995661 9.0
243.137681 40.0
245.07996 12.0
247.099248 16.0
249.103627 15.0
249.114447 94.0
251.005886 7.0
255.068323 13.0
257.082712 30.0
257.090562 16.0
258.090531 8.0
259.09556 177.0
262.084358 10.0
265.018526 25.0
267.138985 46.0
268.980264 8.0
269.081484 7.0
273.083071 15.0
273.162381 10.0
275.0925 513.0
276.104029 86.0
277.115808 4328.0
281.056546 42.0
282.054315 14.0
284.141014 10.0
285.145893 85.0
287.089562 17.0
289.10814 27.0
291.190629 7.0
299.171554 15.0
301.145402 100.0
302.150922 12.0
303.156411 29.0
305.10057 35.0
309.184887 14.0
310.139896 7.0
315.123113 15.0
319.14948 6.0
327.165495 82.0
327.197385 9.0
328.140774 6.0
332.127772 8.0
345.155413 40.0
345.169963 528.0
363.169251 29.0
363.180451 443.0

