>compound 
>formula C19H20O10
>parentmass 409.1129278403
>ionization [M + H]+
>instrumentation Unknown (LCMS)
>source file:/Users/fanzhoukong/Documents/GitHub/Libgen/data/EAD_PFP/0_unknown_/spectrum.ms
>quality UNKNOWN

>ms2peaks
50.012886 255.0
51.01969 533.0
52.028764 104.0
53.037008 492.0
54.038363 29.0
55.016377 174.0
55.030187 202.0
56.046431 15.0
57.032755 1048.0
60.983721 38.0
62.012385 47.0
63.021649 307.0
64.029654 93.0
65.038548 1127.0
66.043382 112.0
67.051916 228.0
68.02445 81.0
68.995844 601.0
71.011292 18.0
74.015115 29.0
75.021439 98.0
76.027733 100.0
77.038147 771.0
78.041391 192.0
79.018025 33.0
79.051115 308.0
80.049809 97.0
81.031834 507.0
81.041534 110.0
82.042028 65.0
85.02794 839.0
86.010874 21.0
87.024128 27.0
89.035166 181.0
90.043711 57.0
91.057015 1086.0
92.045899 55.0
92.056239 168.0
93.018403 138.0
93.028793 255.0
94.054897 110.0
95.047471 48.0
96.020305 29.0
97.028959 139.0
99.007477 59.0
99.992471 27.0
101.032556 19.0
102.04536 80.0
103.047304 176.0
103.052284 87.0
105.035762 43.0
105.068892 209.0
106.056276 40.0
107.01483 56.0
107.05842 56.0
108.023514 63.0
109.024659 152.0
110.036573 148.0
111.008787 125.0
112.999355 49.0
115.050683 561.0
116.056357 123.0
117.060052 85.0
117.063232 158.0
118.055286 38.0
119.07398 43.0
120.018694 84.0
120.077724 26.0
121.027478 2254.0
122.035082 19.0
123.004476 66.0
123.017516 63.0
123.044676 25.0
124.01589 40.0
125.016114 43.0
125.021584 181.0
126.044549 30.0
127.050683 127.0
127.061733 49.0
128.063047 335.0
129.068291 86.0
130.064075 113.0
131.047959 31.0
131.073769 78.0
132.016423 21.0
132.052453 57.0
132.081723 43.0
133.024607 105.0
134.037771 42.0
135.009235 42.0
135.044536 23.0
137.020014 85.0
138.029838 141.0
139.053752 57.0
141.06755 124.0
142.076974 35.0
143.075919 28.0
144.079543 33.0
145.026487 48.0
145.068967 43.0
145.96709 40.0
147.006925 28.0
147.041365 72.0
148.012299 44.0
149.024673 295.0
150.035727 75.0
151.046561 123.0
152.058395 154.0
153.017859 556.0
154.059354 39.0
154.075154 38.0
155.051918 50.0
155.068998 31.0
156.080722 70.0
157.068716 19.0
157.084676 31.0
157.093286 33.0
158.07339 21.0
159.046664 29.0
159.113384 19.0
160.056388 19.0
161.022052 56.0
162.030546 94.0
163.01465 46.0
163.035921 196.0
164.034365 37.0
164.059465 24.0
165.019489 1725.0
166.030303 125.0
167.065717 33.0
167.075847 51.0
168.054831 50.0
168.071341 40.0
169.072315 42.0
169.082515 44.0
170.062219 24.0
170.09801 36.0
171.042203 61.0
171.058874 30.0
172.089268 40.0
173.024802 36.0
175.04344 55.0
176.011654 159.0
177.019038 2735.0
178.022762 25.0
178.996536 1141.0
180.057111 23.0
181.014034 647.0
182.088489 19.0
183.038853 25.0
183.086573 14.0
184.051497 17.0
185.045621 18.0
185.066941 21.0
187.043219 93.0
189.017887 712.0
190.028001 107.0
191.034046 699.0
192.00338 49.0
192.991504 125.0
193.010564 77.0
194.021718 99.0
194.393039 31.0
195.032782 3399.0
197.06008 85.0
199.037009 34.0
200.047213 25.0
201.012727 20.0
203.034485 113.0
203.049835 47.0
204.002979 29.0
204.009959 29.0
205.011643 333.0
207.033631 202.0
208.087896 20.0
211.067488 27.0
213.040396 46.0
213.058986 71.0
214.06398 16.0
215.032534 193.0
215.067004 20.0
216.045028 20.0
216.089669 21.0
217.010842 78.0
217.067133 22.0
218.020767 273.0
219.030121 2410.0
221.004849 16.0
221.052909 18.0
223.022077 71.0
225.055845 25.0
226.07397 25.0
227.063404 32.0
229.047252 184.0
230.093676 24.0
231.03229 1420.0
233.025888 36.0
233.042338 178.0
235.056587 17.0
239.033853 59.0
241.035731 44.0
241.050951 75.0
242.068015 28.0
243.030719 676.0
245.046178 280.0
246.056262 43.0
247.056096 183.0
249.040244 193.0
252.039076 22.0
253.047881 41.0
255.030839 58.0
257.045097 173.0
259.051515 38.0
259.060975 2107.0
261.043583 926.0
262.149518 15.0
265.05376 44.0
266.022734 24.0
266.999908 25.0
269.038276 176.0
270.04994 37.0
271.060255 2146.0
273.046073 70.0
275.055361 39.0
279.050277 744.0
281.040466 57.0
281.051936 141.0
282.04807 48.0
283.059144 230.0
285.055282 68.0
285.071822 103.0
287.0551 92.0
289.060239 309.0
289.070249 1599.0
295.055323 31.0
297.057771 84.0
297.064541 147.0
298.042945 24.0
299.05006 74.0
301.071128 47.0
309.071801 31.0
311.045159 40.0
311.057249 45.0
312.061893 68.0
313.073337 2768.0
325.069907 2278.0
327.088325 96.0
329.077403 18.0
337.070756 968.0
341.059052 19.0
343.0629 32.0
343.084691 255.0
353.065322 26.0
355.08193 809.0
373.090614 641.0
391.091238 53.0
391.110618 86.0

