>compound 
>formula C56H88O26
>parentmass 1194.59020394506
>ionization [M + H3N + H]+
>instrumentation Unknown (LCMS)
>source file:/Users/fanzhoukong/Documents/GitHub/Libgen/data/EAD_PFP/0_unknown_/spectrum.ms
>quality UNKNOWN

>ms2peaks
127.052805 37.0
128.059614 126.0
129.055942 51.0
130.068391 41.0
130.99847 51.0
131.08145 46.0
133.100158 65.0
137.058764 41.0
139.048861 69.0
141.068419 79.0
142.063818 16.0
142.069658 82.0
143.076767 56.0
144.080386 46.0
145.054475 34.0
145.969094 27.0
147.080193 30.0
164.060094 22.0
165.071733 124.0
166.075112 38.0
167.076471 116.0
168.063049 55.0
169.058918 18.0
170.097317 53.0
171.065856 117.0
172.116815 38.0
173.131044 26.0
175.045272 22.0
175.137312 53.0
176.058981 82.0
177.054759 29.0
178.078158 135.0
179.082247 39.0
180.082566 129.0
181.077775 31.0
182.108784 61.0
183.116193 23.0
184.095812 21.0
187.063728 30.0
187.148158 174.0
188.143867 14.0
189.074856 537.0
190.066205 34.0
190.997874 83.0
192.077063 25.0
192.982332 56.0
193.081682 31.0
195.08376 66.0
196.112668 59.0
198.104156 28.0
199.111965 50.0
199.879884 11.0
201.164423 65.0
202.075522 23.0
203.142241 23.0
203.172971 54.0
204.08299 31.0
205.072209 86.0
206.091937 43.0
207.029626 138.0
209.085564 21.0
212.057971 31.0
214.062699 30.0
215.080088 29.0
217.097575 21.0
219.095463 31.0
221.083591 17.0
222.11751 46.0
225.073537 36.0
226.072535 21.0
227.134294 11.0
229.082852 11.0
231.08291 35.0
234.970956 20.0
237.071903 33.0
239.091311 26.0
241.193849 22.0
242.983257 24.0
248.172001 48.0
249.14519 12.0
250.064519 12.0
255.088503 49.0
265.019943 44.0
268.980088 45.0
273.094214 27.0
281.048185 109.0
282.050874 44.0
290.086565 12.0
299.078195 12.0
309.115814 62.0
313.252829 12.0
315.209897 12.0
325.109606 37.0
325.118456 79.0
328.303873 12.0
332.241888 12.0
333.120977 89.0
351.134048 351.0
353.115675 13.0
365.313572 12.0
367.117 54.0
375.304491 26.0
393.322721 55.0
395.334159 21.0
407.255446 12.0
419.275572 12.0
421.31 77.0
422.320009 12.0
424.149957 38.0
437.299603 28.0
439.3177 138.0
455.307793 18.0
455.318233 50.0
456.320062 51.0
457.32924 132.0
458.335379 38.0
461.303576 12.0
471.171055 84.0
487.167588 28.0
495.161359 53.0
499.322694 27.0
502.330541 79.0
503.34323 45.0
513.186479 452.0
545.345193 12.0
613.368008 46.0
621.2051 12.0
631.376599 25.0
639.21613 49.0
645.403073 16.0
657.20567 48.0
657.22575 60.0
665.380281 14.0
665.392921 36.0
675.23617 341.0
691.404542 39.0
692.272891 36.0
827.435222 27.0
827.446512 26.0
853.448434 17.0
853.456984 47.0
869.457576 22.0
872.464223 70.0
914.480776 50.0
972.512212 27.0
997.495215 58.0
1003.981348 13.0
1015.502085 59.0
1032.533386 13.0
1034.526914 67.0
1046.518961 16.0
1060.550805 42.0
1076.529798 45.0
1120.561849 13.0
1134.558534 13.0
1148.598928 61.0
1149.595147 85.0
1177.557146 72.0
1192.56726 44.0
1193.589109 149.0
1194.584348 2017.0
1194.597898 2292.0

