>compound 
>formula C28H34O8
>parentmass 521.21458905238
>ionization [M + Na]+
>instrumentation Unknown (LCMS)
>source file:/Users/fanzhoukong/Documents/GitHub/Libgen/data/EAD_PFP/0_unknown_/spectrum.ms
>quality UNKNOWN

>ms2peaks
126.044383 24.0
126.047683 60.0
127.052723 144.0
128.060644 377.0
129.065874 138.0
130.067214 90.0
131.085874 98.0
133.076355 121.0
136.071915 38.0
138.032996 22.0
139.054596 52.0
141.069566 118.0
143.080267 31.0
143.083787 81.0
145.082787 85.0
164.140491 33.0
165.071812 411.0
166.071402 209.0
167.066412 103.0
167.080342 191.0
168.075832 152.0
169.099752 126.0
170.093573 60.0
171.100553 121.0
173.060253 71.0
173.129843 72.0
174.086303 36.0
175.071304 59.0
176.057794 167.0
176.075984 52.0
177.084854 78.0
178.070444 222.0
180.081405 63.0
181.092415 117.0
182.102305 115.0
183.024865 23.0
185.131496 138.0
187.102746 164.0
189.062877 216.0
189.075007 196.0
190.059617 126.0
190.998027 91.0
192.084017 180.0
194.095928 89.0
195.088038 82.0
196.084048 48.0
197.094968 54.0
202.075729 174.0
204.0846 134.0
204.1014 121.0
205.07803 63.0
206.11043 111.0
207.03124 108.0
209.046111 43.0
211.100631 44.0
213.099412 97.0
216.077092 50.0
217.073272 50.0
219.100073 39.0
221.117363 104.0
223.120454 132.0
225.085564 338.0
226.103754 105.0
227.071095 147.0
228.108555 38.0
230.096935 169.0
231.102565 23.0
232.126796 102.0
233.145806 64.0
235.137966 68.0
239.108287 38.0
243.133248 74.0
244.142438 91.0
245.113858 44.0
246.147119 34.0
248.986289 41.0
249.143989 68.0
250.96727 67.0
251.12869 139.0
253.10257 51.0
259.138351 145.0
260.137522 129.0
261.138622 136.0
262.152752 148.0
263.154552 248.0
264.161452 90.0
266.016403 34.0
267.097583 105.0
269.110613 72.0
270.093404 99.0
271.092514 313.0
273.112444 145.0
275.061845 39.0
278.212995 41.0
279.118946 73.0
281.046956 218.0
283.083786 176.0
286.154467 50.0
289.051808 72.0
297.116689 72.0
298.12734 43.0
299.97387 22.0
302.18188 106.0
307.149102 39.0
313.208273 40.0
315.187803 54.0
317.150904 23.0
320.151664 63.0
323.159515 91.0
324.165855 113.0
325.111905 94.0
326.184966 46.0
328.185516 65.0
329.201416 74.0
331.164827 52.0
332.156737 23.0
335.164727 47.0
338.146668 34.0
339.120118 50.0
344.191929 49.0
345.96072 23.0
347.15158 58.0
351.158511 94.0
353.138371 341.0
355.171812 48.0
356.195342 121.0
357.198122 143.0
358.198612 316.0
360.144263 29.0
365.160684 75.0
365.177524 209.0
366.239724 47.0
367.166414 67.0
370.175935 95.0
371.173655 180.0
372.176515 110.0
375.159006 24.0
377.176796 86.0
379.135107 81.0
390.197799 49.0
393.16993 449.0
395.14982 568.0
396.15724 116.0
398.097701 40.0
403.176162 67.0
406.248552 50.0
415.220234 37.0
419.204115 83.0
421.228316 49.0
423.144546 174.0
424.241476 147.0
425.158036 99.0
427.253227 24.0
433.198598 29.0
441.09636 82.0
445.088551 56.0
447.174221 24.0
449.187981 112.0
453.143512 1037.0
453.149772 2744.0
457.227413 24.0
459.211174 96.0
461.333854 24.0
466.221915 106.0
468.233546 228.0
471.135766 24.0
475.227137 91.0
477.200287 182.0
480.295438 24.0
484.234439 24.0
484.256009 49.0
486.245639 2195.0
489.09039 24.0
491.22452 115.0
492.208561 46.0
493.224031 265.0
502.711373 78.0
503.203463 752.0
504.258823 97.0
506.130404 24.0
509.755654 24.0
513.207405 22.0
519.192266 216.0
520.141366 170.0
521.216557 8937.0

