>compound 
>formula C12H22O6
>parentmass 285.13085942648
>ionization [M + Na]+
>instrumentation Unknown (LCMS)
>source file:/Users/fanzhoukong/Documents/GitHub/Libgen/data/EAD_PFP/0_unknown_/spectrum.ms
>quality UNKNOWN

>ms2peaks
50.014274 174.0
51.023175 430.0
52.028725 109.0
53.038386 90.0
54.032536 8.0
54.036856 8.0
55.054087 173.0
55.934177 25.0
56.049997 8.0
56.056597 11.0
56.963858 11.0
57.071118 75.0
57.932818 7.0
59.046869 8.0
60.98355 25.0
62.01374 56.0
63.023011 214.0
64.018471 13.0
65.039902 828.0
66.044732 82.0
67.053263 247.0
68.051643 7.0
68.995554 85.0
69.069624 16.0
71.084465 44.0
72.079885 7.0
72.935736 21.0
74.016436 38.0
75.019377 36.0
76.030767 101.0
77.039468 1048.0
78.042708 158.0
79.054169 435.0
80.050239 93.0
81.06842 118.0
82.06552 29.0
83.079431 5.0
83.083891 25.0
85.064472 8.0
86.014892 10.0
87.023593 8.0
89.038294 211.0
90.044064 36.0
91.056415 933.0
92.057515 205.0
93.057466 7.0
93.061246 47.0
93.065966 53.0
94.062816 39.0
95.080257 19.0
95.950537 10.0
96.018677 10.0
97.025388 31.0
98.096518 13.0
99.021399 15.0
99.992739 7.0
100.023109 8.0
101.03872 21.0
102.0466 103.0
103.054511 141.0
104.055381 24.0
105.069122 138.0
106.067592 36.0
107.071803 9.0
107.084983 24.0
108.079723 12.0
109.075994 13.0
110.997605 9.0
111.041995 5.0
113.002636 17.0
113.025546 9.0
114.042216 6.0
115.053977 488.0
116.057547 92.0
117.066538 91.0
118.057538 5.0
118.063918 49.0
119.071949 7.0
119.083709 12.0
120.081049 22.0
121.06637 6.0
121.09655 5.0
122.09902 22.0
123.078441 8.0
125.039171 18.0
126.045692 63.0
126.899492 6.0
127.054042 189.0
128.048653 6.0
128.060863 368.0
129.056073 26.0
129.068313 128.0
130.066314 105.0
130.994134 18.0
131.070384 42.0
131.082734 10.0
132.017565 5.0
132.063705 5.0
132.081705 22.0
132.902605 5.0
133.015565 9.0
133.102565 17.0
134.097866 12.0
135.079786 12.0
135.115086 8.0
136.111007 7.0
137.038317 16.0
137.055527 6.0
138.030928 17.0
138.043578 20.0
139.054838 222.0
140.052399 98.0
141.053519 6.0
141.067479 156.0
141.92629 8.0
142.06871 54.0
142.99147 9.0
143.07465 41.0
144.079441 59.0
145.085381 17.0
145.969332 19.0
146.072332 6.0
147.078072 8.0
147.113712 18.0
147.964503 7.0
148.112293 7.0
149.097493 6.0
150.047574 10.0
151.050024 72.0
152.046155 15.0
152.063055 105.0
153.060095 106.0
154.065246 72.0
155.066366 25.0
155.079786 21.0
156.080517 55.0
157.084467 21.0
158.094118 18.0
159.077318 8.0
159.115628 13.0
161.095169 16.0
162.06647 7.0
163.05443 12.0
164.050411 120.0
164.934921 7.0
165.060761 13.0
165.070831 149.0
166.062832 301.0
167.071762 322.0
168.069763 42.0
168.077383 197.0
169.064383 99.0
169.075833 69.0
169.995504 11.0
170.061904 19.0
170.082354 19.0
170.097694 14.0
171.099554 13.0
171.117484 11.0
172.105645 7.0
173.052815 6.0
173.101775 9.0
175.070306 15.0
175.111786 9.0
175.146776 15.0
176.061987 22.0
177.047337 11.0
177.068197 22.0
178.057668 44.0
178.073358 61.0
179.060388 1004.0
180.069859 898.0
181.084819 74.0
182.0841 34.0
182.18194 6.0
183.06362 23.0
183.09544 23.0
184.076321 52.0
185.065161 6.0
185.093151 7.0
185.113151 7.0
186.048642 6.0
187.054822 10.0
188.145673 6.0
188.905633 6.0
189.069943 45.0
189.091493 10.0
190.073434 22.0
191.002404 8.0
191.061994 49.0
191.070114 86.0
192.069415 946.0
193.079465 1472.0
194.085346 216.0
195.096576 118.0
196.103577 24.0
197.069167 127.0
198.078478 37.0
199.058598 9.0
200.064659 5.0
201.073279 9.0
202.07746 64.0
203.07996 28.0
203.1372 12.0
204.077951 19.0
205.075571 81.0
205.117651 6.0
206.082652 5.0
206.098122 11.0
207.031592 52.0
207.071062 8.0
208.067483 128.0
209.035143 12.0
210.081704 34.0
210.095914 18.0
211.085354 220.0
212.067115 56.0
213.125525 8.0
215.064886 6.0
215.082136 18.0
215.092186 13.0
216.076017 6.0
216.090417 14.0
217.092407 16.0
218.093818 11.0
219.055488 19.0
219.084498 11.0
220.064329 27.0
221.072569 570.0
222.08018 142.0
223.08426 16.0
225.021281 19.0
225.059491 11.0
225.106521 31.0
226.027541 112.0
226.045212 58.0
226.070252 9.0
227.081822 8.0
228.082303 7.0
229.095383 13.0
230.097334 8.0
231.140184 13.0
232.139115 6.0
235.097796 7.0
237.068087 13.0
238.072177 18.0
239.087488 1825.0
240.085228 29.0
240.123178 6.0
242.98551 9.0
244.02807 22.0
244.03571 75.0
249.067103 613.0
250.964584 15.0
250.980104 6.0
250.998734 6.0
252.087854 6.0
253.088975 13.0
254.964126 6.0
257.091197 508.0
262.046949 11.0
263.08669 6.0
265.022391 29.0
266.021661 8.0
266.071191 8.0
267.082022 1944.0
267.996972 6.0
268.979333 9.0
269.003413 6.0
281.054009 64.0
282.053429 20.0
283.05459 7.0
283.1156 18.0
285.135071 3629.0

