>compound 
>formula C8H12N2O3S
>parentmass 217.06414442873
>ionization [M + H]+
>instrumentation Unknown (LCMS)
>source file:/Users/fanzhoukong/Documents/GitHub/Libgen/data/EAD_PFP/0_unknown_/spectrum.ms
>quality UNKNOWN

>ms2peaks
50.015901 74.0
51.023411 178.0
52.020481 101.0
53.038611 1068.0
54.034911 259.0
55.053571 1564.0
56.048731 203.0
56.862071 31.0
57.048371 4065.0
57.052811 3053.0
58.055351 2152.0
58.995881 1053.0
59.972781 48.0
59.989471 107.0
61.003611 198.0
61.005901 427.0
62.007731 3482.0
64.031941 15.0
64.830061 27.0
65.040041 650.0
66.034521 127.0
66.042481 80.0
67.054191 1930.0
68.050961 1119.0
69.045311 289.0
69.051011 4698.0
70.069021 4995.0
70.695261 21.0
70.785891 81.0
71.061441 247.0
71.073011 522.0
71.331741 22.0
72.081641 3351.0
72.934141 44.0
74.008091 5087.0
75.027081 545.0
76.015461 79.0
76.022291 532.0
77.04125 556.0
78.03843 157.0
79.022 89.0
79.04377 84.0
79.05509 103.0
80.05028 899.0
81.05787 329.0
81.79156 16.0
82.06643 4120.0
83.05266 2526.0
83.98732 20.0
84.08251 687.0
85.02654 103.0
85.03918 666.0
86.01581 50.0
86.03852 114.0
86.04942 435.0
86.73688 30.0
87.02633 763.0
88.02989 50.0
88.03632 184.0
89.01887 4458.0
90.00872 37.0
90.98069 25.0
91.05452 219.0
92.0509 548.0
93.05553 164.0
93.06026 162.0
94.06657 3437.0
95.06779 2120.0
96.07047 1542.0
97.06296 448.0
97.07358 1098.0
98.06055 2648.0
99.09445 1668.0
99.79586 15.0
100.01911 32.0
100.07692 223.0
101.01698 41.0
101.03765 534.0
101.05341 521.0
101.05932 506.0
101.42106 21.0
102.00198 1608.0
102.03662 68.0
103.0395 25.0
103.0574 29.0
104.04928 47.0
104.05628 34.0
105.03286 19.0
105.05696 30.0
105.96964 24.0
107.02202 25.0
107.06256 73.0
108.03174 15.0
108.04294 64.0
108.05414 59.0
109.08098 1941.0
110.06437 1248.0
111.09244 2292.0
112.07654 1380.0
113.03477 237.0
114.03997 1681.0
115.01809 17.0
115.05277 48.0
115.06327 1142.0
115.69568 29.0
116.06266 67.0
116.07215 5265.0
116.8693 19.0
117.01231 470.0
117.06742 28.0
118.01904 319.0
119.05252 34.0
119.06107 231.0
119.20221 15.0
120.04543 529.0
120.99181 732.0
122.05444 86.0
122.06093 678.0
123.05867 1362.0
124.02884 65.0
124.04411 107.0
124.06266 122.0
125.02252 69.0
125.03457 191.0
126.03777 2994.0
127.06044 210.0
127.08694 1119.0
128.05952 2868.0
129.01689 63.0
129.02801 192.0
129.03914 126.0
130.02698 40.0
130.0683 20.0
130.99165 40.0
131.01633 18.0
133.02322 20.0
133.03451 27.0
135.05675 28.0
136.02273 16.0
137.07474 4016.0
138.06863 216.0
138.07323 374.0
139.00142 141.0
139.08806 590.0
140.07181 52.0
141.06834 1018.0
142.03339 63.0
142.03921 103.0
143.06615 5686.0
144.05562 180.0
145.07799 45.0
146.44163 22.0
147.05398 57.0
148.029689 17.0
148.049969 63.0
149.359239 20.0
150.044829 73.0
151.053279 70.0
152.017999 22.0
152.060289 73.0
154.033259 2487.0
155.083069 3981.0
156.049539 934.0
156.082589 38.0
157.014109 21.0
157.097589 376.0
160.044599 1892.0
161.074869 90.0
163.046509 21.0
164.016129 23.0
164.055019 11.0
165.067889 1859.0
166.067469 131.0
167.047289 50.0
167.066269 35.0
168.056639 20.0
168.069329 30.0
168.956949 26.0
168.995159 35.0
169.060119 26.0
170.019319 34.0
170.033369 56.0
170.049989 22.0
171.061929 2449.0
172.042219 670.0
172.070489 49.0
173.056209 46.0
178.079409 28.0
180.079889 15.0
181.043459 51.0
182.028089 233.0
183.065759 21.0
183.079019 313.0
184.049219 13.0
184.087779 18.0
187.794619 15.0
188.049759 33.0
189.069409 1436.0
190.058039 48.0
190.997819 28.0
192.072939 17.0
192.975479 41.0
199.052469 652.0
200.041909 382.0
202.076869 14.0
204.087139 25.0
207.033799 53.0
208.037199 15.0
209.026019 23.0
216.359149 20.0
217.071549 5537.0

