>compound 
>formula C28H36N2O4
>parentmass 465.27478864742
>ionization [M + H]+
>instrumentation Unknown (LCMS)
>source file:/Users/fanzhoukong/Documents/GitHub/Libgen/data/EAD_PFP/0_unknown_/spectrum.ms
>quality UNKNOWN

>ms2peaks
50.015251 182.0
51.022762 455.0
52.030432 80.0
53.038673 131.0
54.034264 14.0
55.055104 307.0
55.933735 20.0
56.049555 30.0
57.069926 17.0
60.984608 35.0
61.006028 10.0
62.014029 40.0
63.023289 382.0
64.02973 44.0
65.038611 891.0
66.044221 43.0
67.054352 274.0
68.048703 17.0
68.996653 108.0
72.936856 9.0
73.044816 8.0
74.015037 55.0
75.042567 87.0
76.028488 57.0
77.038888 1105.0
78.045589 209.0
79.05446 600.0
80.05227 124.0
81.069581 103.0
82.067572 21.0
83.086852 48.0
84.085473 15.0
85.049394 12.0
86.014264 8.0
88.027426 10.0
89.037646 248.0
90.044347 82.0
91.055757 1544.0
92.055908 199.0
93.065299 153.0
94.063089 44.0
95.07767 16.0
95.08435 22.0
96.079441 12.0
97.100941 10.0
98.097762 14.0
99.993013 16.0
101.038014 17.0
102.047865 123.0
103.052795 363.0
104.054656 41.0
105.071396 328.0
106.064837 87.0
107.050788 72.0
107.064978 12.0
108.079988 12.0
109.066029 9.0
109.090589 10.0
110.09972 20.0
110.99891 25.0
112.998742 35.0
114.042482 14.0
115.054243 1082.0
116.044094 10.0
116.054644 45.0
116.060984 156.0
117.062564 294.0
118.064185 273.0
119.044425 9.0
119.054045 44.0
119.064735 37.0
119.082905 27.0
120.056616 15.0
120.077016 70.0
121.060167 15.0
121.065557 147.0
122.073297 9.0
122.097117 26.0
123.079788 15.0
123.114568 7.0
124.111149 16.0
125.002189 10.0
126.04705 49.0
127.054301 218.0
128.061131 525.0
129.069692 131.0
130.065443 301.0
131.051593 47.0
131.063923 65.0
131.072893 121.0
131.082993 11.0
132.080864 183.0
133.065544 134.0
133.072334 80.0
133.083624 27.0
134.070915 37.0
135.044756 33.0
135.058416 19.0
135.076616 12.0
136.115816 13.0
139.055088 45.0
140.049169 26.0
140.060769 16.0
141.07006 180.0
142.06896 91.0
143.074901 101.0
144.080872 249.0
146.065473 358.0
147.067623 192.0
147.079493 69.0
148.077974 220.0
149.064255 72.0
149.095355 12.0
150.069425 235.0
151.055086 13.0
151.069536 74.0
151.075566 124.0
152.064517 235.0
153.070027 133.0
154.066698 433.0
155.065389 34.0
155.076369 155.0
156.083209 539.0
157.06015 9.0
157.07489 28.0
157.08716 70.0
158.075871 58.0
158.093111 80.0
158.098041 173.0
159.067681 111.0
159.081271 95.0
160.074992 331.0
161.082972 627.0
162.091633 422.0
163.062154 153.0
164.063194 18.0
164.082014 93.0
165.089945 1578.0
166.070656 93.0
167.074516 298.0
168.081437 440.0
169.076058 62.0
169.086258 158.0
170.092798 235.0
171.071589 56.0
171.089519 59.0
172.075029 219.0
173.08527 76.0
174.062261 87.0
174.077771 117.0
174.093281 108.0
175.065351 149.0
175.097751 15.0
176.071302 874.0
177.086673 382.0
178.086653 248.0
179.088134 44.0
179.109124 15.0
180.081915 135.0
181.059985 10.0
181.075815 30.0
181.086355 123.0
182.071116 10.0
182.081686 30.0
182.094896 168.0
183.067817 94.0
183.077097 122.0
183.090357 71.0
184.080547 380.0
185.085378 342.0
186.092968 491.0
187.081839 31.0
187.099249 40.0
188.07334 280.0
189.08497 210.0
190.088511 2967.0
191.093362 367.0
192.102202 1528.0
192.980333 49.0
193.089203 37.0
193.108263 14.0
194.095124 42.0
195.092684 22.0
195.103634 42.0
196.076355 71.0
196.095565 91.0
196.110655 48.0
197.076266 19.0
197.087246 142.0
197.107876 24.0
197.123016 7.0
198.093856 589.0
199.103027 348.0
200.067647 37.0
200.103667 226.0
200.141088 13.0
201.081818 176.0
202.084629 91.0
202.116659 41.0
203.095519 223.0
204.10334 412.0
205.110841 916.0
206.118021 175.0
207.033212 87.0
208.032353 13.0
208.114323 22.0
209.121753 29.0
210.093274 86.0
210.104634 31.0
210.127354 36.0
211.088385 16.0
211.109755 68.0
211.135365 154.0
212.108685 775.0
213.078536 24.0
213.101416 249.0
213.108566 271.0
214.090726 382.0
214.096456 266.0
215.095257 238.0
215.122557 20.0
216.107888 271.0
216.125178 21.0
217.105598 25.0
218.120069 367.0
219.12384 26.0
220.10959 13.0
220.13429 29.0
223.099072 15.0
223.140042 12.0
224.070243 25.0
224.083433 33.0
224.111303 41.0
225.089064 13.0
225.118474 61.0
225.149344 12.0
226.089584 853.0
226.121994 17.0
227.090855 35.0
227.095275 256.0
227.115955 100.0
227.127765 40.0
228.107635 977.0
229.113366 602.0
230.121297 946.0
231.126977 48.0
232.137828 153.0
238.087492 14.0
238.096552 18.0
238.113172 18.0
239.095243 22.0
239.131603 28.0
240.108163 184.0
240.126403 107.0
241.117174 102.0
241.135424 61.0
241.147584 10.0
242.126734 1601.0
242.151124 36.0
243.126205 670.0
244.138446 3127.0
245.146656 55.0
246.152327 665.0
248.993079 15.0
250.97252 9.0
252.103601 49.0
253.112512 8.0
254.118762 392.0
255.105113 12.0
255.125453 110.0
256.137243 2194.0
257.143194 660.0
258.152685 3273.0
259.159435 249.0
260.164986 413.0
260.180796 42.0
265.014569 23.0
267.00215 21.0
268.131851 35.0
270.148762 912.0
271.160873 61.0
272.166794 5141.0
273.172964 550.0
274.182605 6720.0
275.187616 54.0
276.187916 15.0
276.196066 39.0
277.031877 10.0
281.049219 66.0
282.05358 16.0
282.15392 26.0
283.058041 8.0
283.153651 11.0
284.169981 72.0
286.181603 636.0
287.191743 25.0
288.195344 42.0
298.18042 98.0
299.174201 18.0
303.012424 8.0
344.01636 12.0
391.20932 9.0
405.223219 22.0
417.197557 8.0
417.253587 24.0
418.204638 10.0
419.238968 9.0
420.222399 36.0
421.233119 10.0
421.251209 14.0
431.238126 14.0
432.084806 11.0
433.227907 13.0
433.250337 74.0
434.243928 18.0
435.232508 30.0
435.250918 36.0
436.250889 12.0
445.246405 11.0
448.246647 129.0
449.251047 214.0
450.254498 17.0
463.266126 293.0
463.732227 20.0
463.772327 15.0
464.266097 100.0
465.279838 9591.0

