>compound 
>formula C14H16O5
>parentmass 287.0889946135301
>ionization [M + Na]+
>instrumentation Unknown (LCMS)
>source file:/Users/fanzhoukong/Documents/GitHub/Libgen/data/EAD_PFP/0_unknown_/spectrum.ms
>quality UNKNOWN

>ms2peaks
105.523129 11.0
110.974524 49.0
114.040782 11.0
115.055691 307.0
117.059769 34.0
118.048608 26.0
121.062716 42.0
122.975874 29.0
124.992732 255.0
127.048071 110.0
128.0593 167.0
129.070089 71.0
130.066958 42.0
131.049747 346.0
133.063695 38.0
148.989342 31.0
149.058692 169.0
150.047031 23.0
150.97003 36.0
151.0567 46.0
152.060109 171.0
152.985609 52.0
153.058339 63.0
153.063169 104.0
154.056178 121.0
156.059146 25.0
157.074075 40.0
158.073814 57.0
158.998913 1017.0
161.059782 1661.0
162.059621 112.0
163.06634 94.0
163.0751 119.0
164.066119 26.0
164.983408 168.0
165.068978 172.0
166.036988 47.0
166.069817 45.0
167.071157 658.0
168.079316 77.0
169.034475 305.0
170.040854 41.0
170.995153 253.0
171.986802 41.0
172.995502 54.0
173.998071 49.0
175.00486 67.0
175.07744 187.0
175.536599 32.0
176.053559 37.0
177.051908 113.0
178.049177 46.0
178.076627 120.0
178.999427 70.0
179.076776 42.0
180.083676 88.0
181.026165 57.0
181.084155 75.0
182.999333 203.0
185.000541 301.0
185.009861 369.0
185.999871 202.0
187.00727 120.0
187.534109 23.0
189.047698 107.0
189.069248 65.0
190.060597 91.0
191.003076 92.0
191.068066 38.0
192.002175 33.0
192.071425 27.0
193.085565 232.0
194.073724 47.0
194.986433 92.0
195.098593 72.0
197.014821 93.0
198.99291 175.0
199.987719 46.0
201.004488 1898.0
202.001527 70.0
202.039127 96.0
203.001056 72.0
204.011435 263.0
205.017304 26.0
207.029433 75.0
207.033663 105.0
209.015971 49.0
210.09089 38.0
211.095979 45.0
213.013228 29.0
214.108397 23.0
215.069846 57.0
216.009015 175.0
217.015124 78.0
217.074304 37.0
219.017023 180.0
219.034413 45.0
221.081971 114.0
222.02246 21.0
223.101019 31.0
224.996968 63.0
225.008717 146.0
226.011997 42.0
228.555154 37.0
230.096503 21.0
231.029152 96.0
233.010771 83.0
234.02123 108.0
235.053399 550.0
242.063203 32.0
243.022832 102.0
243.557622 74.0
245.033641 42.0
247.026559 84.0
247.559578 75.0
248.060768 103.0
250.058206 698.0
250.561916 185.0
251.028875 31.0
252.032545 40.0
256.562781 59.0
257.05729 33.0
261.027347 426.0
265.019834 53.0
266.019103 23.0
266.999442 31.0
267.052272 26.0
271.019458 29.0
271.563198 65.0
272.078418 132.0
273.039087 47.0
277.043813 48.0
279.038282 51.0
281.04976 124.0
282.049149 50.0
283.048658 42.0
287.145765 83.0

