>compound 
>formula C29H38O14
>parentmass 611.23343689872
>ionization [M + H]+
>instrumentation Unknown (LCMS)
>source file:/Users/fanzhoukong/Documents/GitHub/Libgen/data/EAD_PFP/0_unknown_/spectrum.ms
>quality UNKNOWN

>ms2peaks
106.065317 22.0
114.043998 85.0
115.055766 1993.0
126.045303 109.0
127.052542 588.0
128.062681 922.0
129.06902 99.0
131.046427 99.0
145.050661 626.0
147.081108 57.0
150.050635 171.0
151.051903 777.0
152.061302 1193.0
153.068021 732.0
155.057269 327.0
155.064579 541.0
156.055467 115.0
157.047056 569.0
158.038095 65.0
159.045844 1286.0
160.054313 89.0
162.05836 64.0
163.058809 1291.0
165.065177 814.0
165.072707 2597.0
166.077365 1077.0
167.087584 627.0
169.067552 235.0
170.036981 806.0
171.047629 3505.0
171.061729 3691.0
172.051008 237.0
173.061147 111.0
176.062593 252.0
177.067512 195.0
178.079191 620.0
179.0846 427.0
181.091997 1309.0
183.037705 435.0
183.049635 799.0
184.052994 200.0
185.069753 260.0
186.033192 141.0
187.038 1962.0
189.069168 146.0
190.080787 161.0
191.088305 263.0
193.065063 577.0
194.074992 652.0
195.083461 319.0
196.0534 95.0
196.0726 182.0
197.060118 1259.0
198.032157 1125.0
199.045326 5445.0
200.047205 100.0
201.058554 57.0
205.067709 99.0
207.030726 82.0
208.086405 350.0
209.098004 1748.0
210.066633 321.0
211.077342 3764.0
212.06908 1114.0
214.062388 110.0
215.068287 442.0
217.045324 171.0
219.070522 3507.0
221.05851 289.0
222.074868 232.0
223.070137 979.0
225.054135 1203.0
226.095804 647.0
227.073462 129.0
227.107412 287.0
228.041381 202.0
231.060268 1392.0
231.076648 10187.0
232.060526 53.0
235.083283 412.0
236.086162 618.0
237.09573 3175.0
238.099879 221.0
239.074328 2178.0
240.081147 129.0
241.085516 104.0
243.065403 338.0
247.101838 43.0
249.092306 124.0
251.075244 136.0
252.044773 80.0
253.062921 437.0
254.09406 2420.0
255.102249 2974.0
257.086927 80.0
259.061964 132.0
260.065743 131.0
263.085519 83.0
265.081827 335.0
267.101685 494.0
268.109653 39.0
269.119542 3404.0
271.12887 129.0
272.102419 153.0
277.050073 64.0
279.10183 87.0
281.051138 85.0
282.048877 77.0
285.072613 99.0
285.084183 199.0
286.113932 328.0
286.125532 380.0
287.128921 2158.0
287.138861 7965.0
296.518429 23.0
297.115899 188.0
299.128686 205.0
313.07566 84.0
317.118655 59.0
321.10678 102.0
322.125759 23.0
325.112785 171.0
327.102963 47.0
343.083254 23.0
345.105771 148.0
349.097226 97.0
353.142932 23.0
355.074849 103.0
356.076038 77.0
363.11647 89.0
381.110888 101.0
396.913029 24.0
399.143007 266.0
413.15565 105.0
416.145856 114.0
417.159645 1260.0
431.169058 132.0
449.180537 2888.0
574.198157 42.0
611.222283 182.0
611.236803 2645.0

