>compound 
>formula C13H10O6
>parentmass 263.05501903972004
>ionization [M + H]+
>instrumentation Unknown (LCMS)
>source file:/Users/fanzhoukong/Documents/GitHub/Libgen/data/EAD_PFP/0_unknown_/spectrum.ms
>quality UNKNOWN

>ms2peaks
89.679547 22.0
103.057928 31.0
110.600005 22.0
115.055459 50.0
117.02881 37.0
117.03517 32.0
119.049932 73.0
126.043918 61.0
127.056669 642.0
128.02803 72.0
128.0646 126.0
129.034241 6081.0
130.042162 4332.0
131.048383 973.0
131.055113 1363.0
132.059613 38.0
133.064574 503.0
134.040435 60.0
135.042636 159.0
137.020388 246.0
137.029558 287.0
139.018299 89.0
141.077201 38.0
142.041102 33.0
143.051633 79.0
144.021064 46.0
145.039775 252.0
145.061015 349.0
146.036036 231.0
147.045206 905.0
148.049517 66.0
151.849721 23.0
155.049683 101.0
156.023394 85.0
157.032085 3752.0
158.037846 3852.0
158.523446 159.0
159.046837 4336.0
160.054068 138.0
161.066979 3296.0
162.033179 90.0
162.50988 32.0
163.04231 15686.0
164.040771 116.0
165.059902 132.0
165.067462 190.0
167.016454 520.0
168.108265 38.0
170.034216 123.0
171.051257 455.0
172.031498 98.0
172.058488 158.0
173.055779 1436.0
173.454209 54.0
174.03399 12477.0
175.039591 4903.0
175.043461 14015.0
176.049372 11449.0
177.034692 46.0
177.043812 291.0
177.062062 294.0
177.824153 53.0
178.077663 46.0
179.038494 201.0
181.106286 47.0
183.013638 100.0
183.045458 56.0
184.015579 234.0
184.026219 127.0
185.022899 5919.0
186.03433 1397.0
187.039121 3203.0
188.050682 414.0
188.417572 214.0
188.440452 138.0
189.059543 20747.0
190.069764 57.0
191.029865 250.0
191.038005 112.0
192.045335 708.0
193.051266 138.0
199.042372 224.0
199.610812 111.0
201.056973 709.0
202.027714 11580.0
203.037045 13941.0
204.047536 3220.0
205.052077 493.0
206.042238 108.0
207.053109 329.0
207.064379 354.0
207.998619 27.0
211.314922 83.0
213.022924 7972.0
215.037955 853.0
216.040386 237.0
216.329897 100.0
216.350067 92.0
217.056687 16979.0
218.065248 129.0
219.028309 51.0
219.064559 142.0
220.03853 6352.0
221.045241 216.0
221.071471 201.0
222.074712 23.0
227.036396 80.0
227.042306 117.0
230.023388 9268.0
231.031829 13990.0
232.0932 103.0
233.049331 194.0
234.055382 12597.0
235.060593 501.0
237.027715 56.0
237.309825 29.0
240.120467 23.0
244.026881 35.0
245.050192 5672.0
246.052592 42.0
247.077053 52.0
248.032674 700.0
249.042705 70.0
260.852945 34.0
262.052036 640.0
262.199526 71.0
263.058387 42598.0

