>compound 
>formula C26H34O11
>parentmass 545.1993329110901
>ionization [M + Na]+
>instrumentation Unknown (LCMS)
>source file:/Users/fanzhoukong/Documents/GitHub/Libgen/data/EAD_PFP/0_unknown_/spectrum.ms
>quality UNKNOWN

>ms2peaks
50.01358 225.0
51.02318 483.0
52.03085 88.0
53.0391 196.0
54.035419 100.0
55.054089 488.0
56.049269 82.0
57.073339 49.0
60.019659 27.0
60.982028 53.0
62.014518 65.0
63.021458 269.0
64.027098 86.0
65.035958 352.0
66.046328 75.0
67.053258 497.0
68.049227 74.0
68.991487 145.0
73.039507 26.0
74.016437 100.0
75.015976 60.0
76.028206 155.0
77.036036 108.0
77.041186 809.0
78.043576 336.0
79.053306 597.0
80.049366 172.0
81.068416 456.0
82.066405 58.0
83.086575 74.0
85.034655 62.0
86.007625 28.0
87.020855 17.0
88.032654 20.0
89.038294 259.0
90.041274 63.0
91.057354 1835.0
92.055634 210.0
93.049904 261.0
94.052364 24.0
94.062814 88.0
95.051603 87.0
95.083123 49.0
96.083963 16.0
98.090693 91.0
99.040893 38.0
99.993723 21.0
100.113263 25.0
102.047592 122.0
103.052512 209.0
104.053372 110.0
105.068112 233.0
106.065572 102.0
107.061662 165.0
108.072592 106.0
113.005751 25.0
114.045351 24.0
115.055021 683.0
116.05543 98.0
117.06759 313.0
118.05752 43.0
119.0698 100.0
120.07889 100.0
121.03079 1261.0
122.04489 80.0
123.050179 120.0
124.067229 72.0
125.069839 19.0
126.040179 46.0
127.047399 108.0
128.063079 427.0
129.050499 20.0
129.068309 193.0
130.060728 103.0
131.049078 64.0
131.060278 114.0
132.065938 58.0
132.076078 49.0
133.072048 99.0
133.084478 75.0
134.061568 33.0
135.047888 87.0
135.058148 76.0
135.076368 64.0
136.062978 192.0
137.064687 171.0
138.032067 14.0
139.039807 71.0
139.057137 48.0
140.057017 40.0
141.068627 245.0
142.073377 86.0
143.067606 77.0
143.075816 60.0
144.071186 85.0
145.078286 75.0
145.971706 24.0
146.095996 43.0
147.056666 163.0
149.069966 76.0
150.078755 38.0
151.062045 65.0
152.055795 78.0
152.063045 216.0
153.070975 170.0
154.076165 53.0
155.068775 82.0
156.064585 40.0
157.089364 36.0
158.087924 65.0
158.096544 28.0
159.056294 55.0
159.098304 89.0
160.067284 29.0
161.070274 179.0
161.080224 122.0
161.980394 20.0
163.064394 51.0
163.071924 112.0
164.062933 90.0
164.077993 29.0
165.068283 707.0
166.076713 60.0
166.080493 43.0
167.076803 121.0
168.068473 57.0
168.083713 56.0
169.063073 25.0
169.079643 48.0
169.094913 28.0
170.077213 22.0
170.097663 73.0
171.026492 30.0
171.038032 54.0
171.070052 23.0
172.063202 34.0
172.108192 25.0
172.115892 38.0
173.066962 84.0
174.062002 63.0
174.072342 86.0
175.053422 20.0
175.088432 44.0
175.150642 44.0
176.051552 18.0
176.063252 69.0
176.084052 18.0
177.065552 214.0
178.074631 395.0
179.083961 174.0
180.075091 25.0
180.084291 53.0
181.079501 36.0
181.100601 21.0
182.191161 48.0
183.033101 26.0
183.078161 21.0
183.111301 37.0
184.035101 37.0
184.052351 49.0
184.116171 23.0
185.03981 36.0
185.06912 34.0
186.05396 36.0
186.08202 29.0
187.07355 39.0
187.0856 47.0
188.06503 17.0
189.06586 176.0
190.07881 66.0
191.00102 18.0
191.07956 379.0
192.091099 44.0
192.176639 26.0
192.978719 73.0
194.083939 75.0
195.078749 81.0
196.082959 144.0
197.096639 80.0
198.126698 26.0
199.058528 69.0
200.064618 40.0
201.048228 101.0
202.063488 82.0
202.077418 104.0
202.087168 79.0
203.098068 55.0
203.141338 103.0
204.080708 46.0
205.061487 49.0
205.072717 43.0
205.092357 46.0
206.091047 29.0
207.045637 120.0
207.068187 89.0
207.076657 105.0
207.085107 81.0
208.090037 43.0
208.104167 45.0
209.063427 45.0
209.093167 140.0
210.070307 18.0
211.073907 23.0
211.156467 20.0
213.071136 31.0
213.088296 30.0
214.096206 459.0
215.082076 139.0
215.099316 83.0
216.091806 24.0
217.090906 28.0
218.076416 37.0
219.074295 17.0
219.087335 30.0
219.149705 21.0
221.088525 99.0
222.072845 17.0
223.110535 55.0
224.127175 38.0
225.040325 26.0
225.087355 112.0
226.081984 18.0
227.093564 138.0
227.100944 239.0
228.095564 30.0
229.071604 108.0
230.998664 19.0
231.105874 23.0
232.122644 49.0
233.093793 220.0
235.084223 41.0
237.069533 20.0
237.090643 26.0
238.069103 26.0
239.088933 36.0
239.105603 95.0
240.091222 44.0
241.086492 29.0
243.093882 65.0
244.093802 20.0
244.115242 18.0
245.092732 27.0
247.105901 34.0
249.084041 40.0
249.111871 40.0
250.063671 18.0
251.102651 223.0
253.092021 54.0
254.0951 45.0
255.10174 42.0
257.07699 34.0
261.089929 15.0
263.067529 16.0
263.104089 40.0
265.081319 28.0
265.086109 78.0
266.093469 34.0
267.005118 41.0
267.061148 19.0
267.102768 57.0
268.105948 18.0
269.115838 431.0
270.087358 61.0
271.097738 20.0
272.103538 17.0
273.104728 35.0
277.083817 45.0
277.193077 9.0
279.083327 15.0
279.102987 40.0
280.075977 17.0
281.053916 100.0
281.068716 113.0
282.064866 24.0
283.085836 48.0
283.100666 87.0
283.117146 62.0
284.103716 24.0
285.106856 29.0
285.118426 26.0
286.123396 91.0
287.128436 490.0
288.143575 23.0
291.109425 17.0
292.109815 17.0
293.095105 40.0
295.094284 39.0
296.106524 22.0
297.115434 69.0
298.115924 108.0
299.124834 22.0
300.132094 23.0
301.144424 27.0
305.137253 544.0
306.121993 23.0
307.080853 119.0
307.089433 255.0
308.097973 30.0
309.106432 36.0
309.115032 107.0
310.111342 25.0
311.105792 48.0
311.129992 127.0
312.139932 33.0
313.142832 26.0
313.182692 19.0
315.106521 33.0
316.108961 113.0
317.112961 45.0
317.139141 17.0
319.097791 19.0
320.103041 54.0
321.116891 131.0
322.11476 35.0
323.12651 15.0
324.09398 43.0
324.11692 73.0
324.13633 37.0
325.11943 22.0
327.12559 218.0
329.120129 85.0
330.146369 387.0
331.152809 58.0
333.116649 80.0
334.116859 328.0
335.113199 24.0
335.125769 172.0
335.140089 47.0
337.095928 53.0
338.111098 879.0
339.133218 36.0
340.131568 24.0
341.136848 539.0
342.147198 610.0
343.151807 27.0
344.334177 16.0
345.112647 36.0
346.119757 25.0
347.122877 124.0
349.127967 30.0
350.126256 17.0
351.114936 129.0
351.120456 556.0
352.132606 347.0
352.147316 127.0
353.142556 98.0
355.118756 75.0
357.096805 10.0
358.139775 60.0
362.106905 24.0
363.125435 80.0
364.132304 87.0
365.112494 75.0
365.140574 178.0
366.144624 80.0
367.120004 21.0
369.129244 49.0
369.161264 26.0
370.138773 79.0
371.121343 95.0
375.153843 17.0
377.116432 58.0
377.127842 67.0
378.125372 18.0
379.097512 59.0
379.128022 107.0
380.124362 47.0
380.141542 63.0
381.131562 1066.0
382.157352 23.0
383.148072 917.0
383.163392 216.0
387.116061 43.0
388.126681 30.0
389.142491 386.0
391.13935 370.0
392.11643 44.0
392.13584 29.0
393.13358 148.0
394.11313 48.0
395.10752 52.0
395.14646 58.0
396.11682 27.0
397.12158 156.0
398.174499 49.0
405.144138 17.0
406.136568 61.0
407.149968 1248.0
408.150788 64.0
409.152828 56.0
410.128328 34.0
410.166018 26.0
411.144688 3239.0
413.175257 18.0
419.134486 19.0
421.116326 24.0
421.152496 52.0
423.122956 49.0
423.143126 76.0
424.147246 42.0
425.162655 4989.0
428.199975 29.0
437.153504 76.0
437.169884 60.0
439.119933 42.0
439.140463 110.0
441.146353 22.0
441.156643 50.0
443.169183 82.0
449.155362 18.0
451.146512 30.0
451.183952 34.0
452.137472 22.0
452.156242 40.0
453.152491 98.0
454.143581 46.0
455.162891 86.0
457.186151 20.0
465.15078 33.0
467.162189 85.0
468.170589 14.0
469.146139 39.0
469.192799 65.0
470.165179 24.0
471.168299 29.0
477.151728 14.0
480.180168 19.0
481.155227 35.0
483.142777 45.0
483.166467 88.0
484.161827 22.0
485.099937 33.0
485.179767 230.0
486.185807 19.0
492.178816 75.0
492.202716 95.0
495.149825 52.0
495.171615 74.0
495.180345 86.0
496.170515 46.0
497.142015 26.0
497.170425 237.0
499.122915 46.0
499.166675 292.0
500.171775 183.0
501.173504 134.0
501.188864 84.0
502.189444 55.0
504.200124 177.0
509.161543 76.0
511.130783 18.0
511.166213 84.0
512.154493 62.0
513.177013 1383.0
514.193923 3044.0
515.191782 3222.0
516.197342 99.0
525.181161 120.0
526.167131 206.0
526.187391 521.0
527.178851 2982.0
528.159991 29.0
528.193741 71.0
529.17128 480.0
530.17006 587.0
530.19038 986.0
536.150709 20.0
537.144669 24.0
542.178538 22.0
543.194098 1169.0
544.201428 4315.0
545.186778 12135.0
545.207408 14414.0

