>compound 
>formula C14H22O2
>parentmass 223.1692609482
>ionization [M + H]+
>instrumentation Unknown (LCMS)
>source file:/Users/fanzhoukong/Documents/GitHub/Libgen/data/EAD_PFP/0_unknown_/spectrum.ms
>quality UNKNOWN

>ms2peaks
50.016955 313.0
51.025173 1222.0
52.030732 59.0
53.03968 455.0
54.047509 31.0
55.047378 688.0
55.055378 661.0
55.936197 24.0
56.047616 11.0
56.060086 9.0
56.946655 6.0
57.062785 17.0
57.070185 459.0
58.064654 12.0
59.049662 243.0
59.929131 6.0
60.98483 34.0
62.015018 18.0
63.025057 256.0
64.030705 16.0
65.039584 1479.0
66.047593 119.0
67.056121 1465.0
68.0626 15.0
69.070878 1861.0
70.039827 6.0
71.052686 151.0
73.066713 19.0
74.015992 30.0
75.02486 34.0
76.033709 69.0
77.042427 2443.0
78.049126 213.0
79.055405 1660.0
80.051463 8.0
80.056723 48.0
81.073172 2504.0
82.043671 25.0
83.050289 922.0
84.056768 5.0
85.065686 209.0
87.044904 26.0
88.028352 8.0
89.041351 244.0
90.04712 16.0
91.057618 2056.0
92.058707 123.0
93.070945 2241.0
94.042154 28.0
95.048013 11.0
95.088133 1460.0
96.054421 13.0
97.06517 656.0
99.044997 27.0
99.082047 16.0
101.059594 13.0
102.048763 61.0
103.056672 493.0
104.06254 87.0
105.071279 2756.0
106.067738 21.0
106.080858 16.0
107.089176 3393.0
108.060505 10.0
109.100673 1652.0
110.035852 9.0
111.047261 37.0
111.071011 47.0
111.083401 107.0
113.002738 6.0
113.098558 8.0
114.047537 12.0
115.055115 1853.0
116.063954 370.0
117.070842 1992.0
118.075691 27.0
119.0859 2569.0
120.077868 6.0
120.092898 41.0
121.104137 3159.0
123.081724 59.0
123.091514 17.0
123.105634 342.0
123.112164 135.0
123.118684 180.0
124.049793 22.0
124.056343 17.0
125.058901 20.0
125.078621 7.0
125.099441 65.0
126.049 63.0
127.054039 219.0
128.063077 1119.0
129.070536 693.0
130.077455 386.0
131.086063 2661.0
132.019762 12.0
132.085052 8.0
132.094062 24.0
133.10252 2071.0
134.073989 5.0
135.116168 3126.0
136.093796 10.0
136.123506 7.0
137.095595 46.0
139.055912 8.0
139.083622 10.0
139.112522 16.0
141.073189 68.0
142.079108 19.0
143.083907 86.0
144.092255 40.0
145.104144 2048.0
146.108903 77.0
147.118311 1382.0
147.96911 8.0
148.0883 28.0
149.097348 1415.0
150.048607 16.0
150.102627 6.0
151.054666 15.0
151.064296 8.0
151.108866 26.0
152.064094 85.0
153.074453 28.0
153.093843 63.0
153.126573 7.0
154.065052 15.0
154.075992 11.0
155.04787 7.0
155.06494 28.0
155.08568 35.0
156.082759 13.0
156.087659 16.0
157.102677 200.0
158.097596 20.0
158.108666 119.0
158.601775 12.0
159.121575 2126.0
160.078223 7.0
160.109213 5.0
161.133482 1174.0
162.104861 51.0
163.112969 9.0
163.149249 1042.0
164.065208 10.0
164.104118 9.0
165.064277 6.0
165.071807 76.0
165.103286 6.0
165.127196 25.0
165.133506 27.0
166.075195 16.0
166.085295 7.0
167.079084 16.0
167.108204 136.0
168.082182 10.0
169.076821 8.0
170.08461 8.0
170.11016 12.0
171.118468 49.0
172.124597 176.0
173.113055 6.0
175.149033 20.0
176.062941 45.0
177.12522 20.0
177.13173 18.0
177.16303 208.0
178.076919 21.0
179.086237 13.0
180.082636 14.0
181.052795 16.0
181.123984 18.0
182.092963 6.0
183.092382 8.0
185.132739 116.0
186.135088 6.0
186.536277 10.0
187.150886 3134.0
189.070844 5.0
189.126103 31.0
190.073002 8.0
190.132432 7.0
191.001981 57.0
191.085931 6.0
192.078459 21.0
192.982368 27.0
193.102148 6.0
194.072607 10.0
195.105685 5.0
198.038011 6.0
200.076628 6.0
202.078336 5.0
203.114344 8.0
203.142274 11.0
204.150183 7.0
205.160621 1266.0
206.07508 6.0
207.026819 38.0
207.032459 166.0
208.034447 8.0
209.011916 10.0
215.087278 8.0
217.088925 5.0
220.113121 7.0
222.083928 6.0
223.080677 15.0
223.149457 19.0
223.171397 635.0

