>compound 
>formula C27H44O7
>parentmass 503.2979247551101
>ionization [M + Na]+
>instrumentation Unknown (LCMS)
>source file:/Users/fanzhoukong/Documents/GitHub/Libgen/data/EAD_PFP/0_unknown_/spectrum.ms
>quality UNKNOWN

>ms2peaks
115.049984 171.0
117.059327 80.0
119.08392 60.0
122.036454 304.0
127.050942 117.0
128.061083 422.0
130.063186 91.0
131.061648 63.0
149.059444 60.0
151.049057 157.0
152.062089 153.0
153.06518 119.0
154.064262 101.0
154.080072 71.0
156.057505 123.0
157.063836 84.0
158.035228 90.0
159.075089 42.0
160.046461 62.0
161.063082 755.0
163.057165 152.0
165.064778 259.0
166.073189 116.0
167.070731 141.0
168.062392 125.0
169.077364 53.0
170.085155 72.0
171.045977 94.0
172.053198 160.0
175.077033 1131.0
177.077576 112.0
178.074917 146.0
179.078989 191.0
180.08327 114.0
181.063962 66.0
183.099655 105.0
187.071161 339.0
189.068843 703.0
190.072345 321.0
191.086626 495.0
192.985809 107.0
195.087252 50.0
199.075418 367.0
202.070753 315.0
202.077733 404.0
203.087204 330.0
205.063207 70.0
206.074489 72.0
207.07556 147.0
209.033993 90.0
210.121735 23.0
211.134006 276.0
215.083842 165.0
217.082575 155.0
218.078176 220.0
219.081878 545.0
221.071381 87.0
229.068963 64.0
231.076426 172.0
231.083866 535.0
232.087177 133.0
233.094129 85.0
235.074041 253.0
236.084453 141.0
237.089484 65.0
243.080473 59.0
247.075459 349.0
248.083531 123.0
249.078212 136.0
251.109225 717.0
258.069405 140.0
259.077587 358.0
261.09346 102.0
263.099683 307.0
265.014696 45.0
267.098349 60.0
272.141076 75.0
273.075958 66.0
275.069121 52.0
276.075752 105.0
277.084204 75.0
278.096135 116.0
279.100107 782.0
280.117348 90.0
281.08882 69.0
285.148606 83.0
290.091153 88.0
291.101464 1307.0
292.111876 125.0
295.11655 249.0
296.108612 201.0
298.145055 201.0
298.156895 262.0
301.144849 78.0
307.095018 82.0
308.105249 58.0
309.113731 80.0
310.127282 105.0
311.128684 1935.0
315.15738 212.0
322.12046 72.0
323.132212 1395.0
327.156148 52.0
338.147584 64.0
341.140908 145.0
342.18208 105.0
353.170616 47.0
355.045379 22.0
357.204652 48.0
367.188067 118.0
369.19939 204.0
371.202963 48.0
385.199203 756.0
395.252138 24.0
397.237271 111.0
399.237154 39.0
415.235318 213.0
425.147042 68.0
427.270556 61.0
429.237019 68.0
441.255956 54.0
443.235729 59.0
455.226187 24.0
457.28937 94.0
459.283753 76.0
467.281355 116.0
469.257068 123.0
469.295238 214.0
470.259229 37.0
471.273091 326.0
473.293414 59.0
483.263978 24.0
483.274758 96.0
484.27665 237.0
485.292581 930.0
486.294413 983.0
487.267014 548.0
501.275025 101.0
501.290375 268.0
502.295417 1072.0
503.294868 4263.0
503.314668 12029.0

