>compound 
>formula C20H28O9
>parentmass 413.1806134785701
>ionization [M + H]+
>instrumentation Unknown (LCMS)
>source file:/Users/fanzhoukong/Documents/GitHub/Libgen/data/EAD_PFP/0_unknown_/spectrum.ms
>quality UNKNOWN

>ms2peaks
114.041772 76.0
115.052484 2393.0
116.060267 360.0
117.071389 2067.0
119.075774 130.0
119.088604 640.0
121.066989 795.0
121.53309 29.0
123.042124 55.0
125.059519 50.0
126.047431 151.0
127.055784 884.0
128.062616 3033.0
129.070059 874.0
131.051974 105.0
131.084504 75.0
131.092364 79.0
133.100969 42.0
141.064659 82.0
141.070469 374.0
142.077551 1172.0
143.085874 1935.0
144.056596 241.0
145.064818 618.0
146.074191 237.0
147.081123 1697.0
148.049796 33.0
148.090326 39.0
149.094598 1126.0
150.045871 156.0
151.059143 813.0
152.063756 7185.0
153.074118 942.0
153.085028 516.0
154.078101 417.0
155.086593 1009.0
156.054286 33.0
156.092236 152.0
157.098678 2403.0
157.103598 6784.0
158.072641 459.0
158.083731 211.0
159.080493 3860.0
160.087836 244.0
161.083448 168.0
161.095878 3508.0
162.06717 76.0
163.065143 540.0
163.073903 408.0
164.063675 106.0
165.071558 3774.0
166.07998 1385.0
167.091483 9754.0
167.829285 59.0
168.055255 113.0
168.061595 207.0
169.066378 1506.0
170.07669 1251.0
171.079783 3016.0
172.088385 79.0
173.063858 203.0
173.069008 289.0
173.079328 224.0
173.098658 130.0
174.07052 73.0
174.09897 47.0
175.076233 459.0
175.109943 2043.0
176.075735 79.0
177.093728 718.0
178.0715 54.0
179.092603 103.0
181.064487 30.0
181.101397 70.0
182.07164 41.0
183.081612 459.0
184.089045 116.0
184.487996 40.0
184.497326 110.0
184.814147 23.0
185.100577 13736.0
186.0748 68.0
186.11088 138.0
187.086412 1373.0
187.097132 543.0
188.076585 38.0
189.092277 5057.0
191.100682 24.0
195.082312 1516.0
197.053457 54.0
198.068229 416.0
199.107752 34.0
199.116062 114.0
201.096307 193.0
202.076869 49.0
203.110082 9249.0
204.078744 43.0
205.083387 58.0
205.118457 84.0
206.094709 25.0
207.052142 52.0
207.102882 38.0
209.088377 74.0
211.074782 58.0
213.094887 7603.0
215.098762 72.0
216.078284 29.0
216.536445 35.0
217.104796 63.0
217.124997 229.0
218.097569 32.0
219.096921 55.0
219.928593 27.0
221.118566 1349.0
227.109241 63.0
229.087356 36.0
231.094881 431.0
231.103811 6601.0
233.118646 34.0
233.220356 32.0
235.134721 70.0
237.114216 22.0
241.101136 40.0
243.099431 45.0
244.107013 26.0
245.119756 830.0
247.097641 35.0
248.287874 31.0
249.115936 6536.0
251.131571 21.0
256.650924 12.0
263.12098 25.0
263.12891 1722.0
265.020125 31.0
267.12459 61.0
281.142045 2551.0
282.052757 42.0
283.12975 103.0
301.142154 95.0
335.141298 39.0
376.49781 12.0

