>compound 
>formula C35H46O19
>parentmass 793.25255025441
>ionization [M + Na]+
>instrumentation Unknown (LCMS)
>source file:/Users/fanzhoukong/Documents/GitHub/Libgen/data/EAD_PFP/0_unknown_/spectrum.ms
>quality UNKNOWN

>ms2peaks
50.01495 180.0
51.02316 677.0
52.03012 70.0
53.03765 138.0
54.036119 28.0
55.053339 294.0
56.053649 41.0
57.032619 31.0
60.982758 37.0
62.011408 52.0
63.022208 152.0
64.028628 27.0
65.038298 769.0
66.043908 108.0
67.050828 254.0
68.993897 191.0
70.063967 20.0
74.013037 31.0
75.018496 38.0
76.031586 80.0
77.040296 795.0
78.041806 179.0
79.055006 414.0
80.051956 96.0
81.068386 238.0
82.061935 18.0
83.085645 47.0
85.049975 29.0
86.015765 23.0
87.021725 25.0
89.035484 54.0
89.039174 159.0
91.050764 543.0
91.054504 1527.0
92.054654 140.0
93.059314 128.0
94.067524 41.0
95.088813 45.0
97.098693 29.0
98.014013 9.0
100.110283 20.0
101.017013 11.0
102.044572 128.0
103.052472 170.0
105.066052 143.0
106.066532 79.0
107.082902 33.0
109.099471 23.0
111.001681 32.0
113.000491 56.0
115.047621 47.0
115.053921 709.0
116.05538 84.0
117.06753 163.0
118.06599 32.0
119.08472 66.0
120.07991 27.0
121.09757 30.0
122.10761 7.0
124.112999 11.0
126.041229 32.0
127.053969 195.0
128.060789 462.0
129.068249 106.0
130.066228 142.0
130.989588 34.0
131.083798 45.0
132.078268 25.0
133.009848 16.0
133.088938 42.0
134.094388 21.0
134.993208 19.0
135.101348 36.0
136.108648 17.0
137.040537 13.0
138.044667 13.0
139.053617 103.0
140.060437 18.0
141.070887 200.0
141.932047 41.0
142.070957 76.0
143.075736 66.0
144.081706 89.0
145.075856 30.0
145.966896 48.0
146.095926 20.0
147.077976 19.0
147.966786 26.0
149.108176 15.0
150.039085 22.0
151.054755 39.0
152.061755 227.0
153.064845 58.0
154.066365 70.0
155.068715 74.0
156.087755 29.0
158.078004 39.0
158.096474 60.0
161.092584 19.0
161.098804 31.0
163.058084 52.0
164.060353 27.0
165.069463 221.0
166.072853 84.0
167.075463 60.0
168.060783 55.0
168.076013 43.0
169.054083 34.0
169.091023 74.0
170.087363 29.0
171.045632 22.0
171.085342 35.0
172.069552 10.0
172.114522 23.0
173.100392 30.0
175.061112 22.0
175.122042 18.0
175.146672 23.0
176.059272 23.0
176.061882 34.0
176.150272 29.0
177.064162 20.0
178.075851 150.0
179.081251 129.0
180.075001 24.0
180.084211 41.0
181.064931 19.0
181.087331 50.0
182.077381 48.0
182.192401 75.0
183.033011 12.0
183.084701 26.0
184.033681 35.0
184.109441 41.0
185.04639 30.0
185.11704 28.0
186.06857 31.0
187.05069 28.0
188.06226 25.0
189.07385 120.0
189.12909 24.0
190.07198 45.0
190.99959 48.0
191.08219 71.0
192.002759 23.0
192.080139 56.0
192.978619 146.0
193.087499 60.0
194.093419 48.0
194.958279 14.0
195.104659 47.0
196.082889 18.0
197.078659 21.0
197.107549 23.0
199.117888 13.0
200.061748 16.0
201.050918 40.0
202.073148 9.0
202.077328 77.0
203.104968 47.0
203.142658 115.0
204.077808 38.0
204.139388 19.0
204.147778 23.0
205.100677 22.0
206.099397 24.0
207.031467 157.0
208.112567 31.0
210.111387 16.0
210.992687 23.0
212.141156 10.0
213.121096 10.0
215.087716 53.0
217.072046 24.0
217.105256 21.0
218.080656 68.0
219.097395 24.0
220.096155 34.0
221.075325 19.0
221.123395 40.0
223.123605 22.0
223.144105 9.0
225.041695 14.0
226.073044 16.0
226.155524 19.0
227.081664 9.0
228.093994 39.0
229.101164 24.0
230.095684 23.0
231.096824 25.0
232.109114 12.0
233.131083 18.0
236.941233 8.0
239.072173 15.0
240.100232 16.0
241.097042 13.0
242.983822 28.0
244.113592 10.0
248.989631 35.0
249.990761 17.0
250.965961 23.0
253.15424 8.0
258.12243 13.0
260.158319 8.0
265.017389 60.0
266.998588 25.0
267.999958 34.0
270.981498 23.0
275.135247 8.0
281.053816 139.0
282.051566 50.0
283.032976 17.0
289.067065 15.0
290.075605 14.0
297.091664 24.0
302.192393 14.0
309.116622 14.0
321.176431 8.0
326.09681 8.0
355.015236 22.0
387.295141 14.0
392.42087 8.0
405.118318 13.0
415.228607 14.0
433.152094 9.0
436.137994 13.0
448.132222 11.0
449.142722 69.0
450.150172 48.0
451.154622 31.0
461.13442 12.0
464.42617 8.0
467.128099 16.0
468.458699 7.0
477.132258 16.0
477.179338 8.0
493.128776 23.0
493.157066 8.0
499.124865 17.0
501.151354 7.0
507.123094 8.0
509.159103 9.0
526.112991 8.0
529.12825 10.0
529.13276 9.0
541.138679 8.0
545.195688 12.0
557.191846 25.0
571.166574 8.0
601.17871 8.0
609.186829 8.0
611.200198 25.0
612.205628 19.0
628.167666 45.0
629.187006 67.0
630.192386 40.0
639.195494 18.0
645.180784 44.0
646.191403 108.0
647.190363 28.0
647.195373 149.0
655.202382 8.0
673.190299 37.0
674.181939 76.0
675.186999 155.0
689.192857 34.0
689.205737 65.0
703.225635 31.0
749.226058 55.0
757.237957 8.0
763.236976 19.0
774.242595 24.0
775.232395 30.0
776.244604 8.0
790.226662 48.0
791.229342 226.0
791.243142 279.0
792.243752 1233.0
793.264252 3519.0

