>compound 
>formula C25H28O8
>parentmass 474.212238859
>ionization [M + H3N + H]+
>instrumentation Unknown (LCMS)
>source file:/Users/fanzhoukong/Documents/GitHub/Libgen/data/EAD_PFP/0_unknown_/spectrum.ms
>quality UNKNOWN

>ms2peaks
115.05169 226.0
115.05904 660.0
116.06157 228.0
117.06845 473.0
119.08243 169.0
119.0867 343.0
121.06938 163.0
123.04561 269.0
125.06631 196.0
127.05709 289.0
128.06282 831.0
129.06917 440.0
131.08919 63.0
145.08267 407.0
147.08246 236.0
147.09315 387.0
149.061229 213.0
150.037599 298.0
151.040009 175.0
151.056849 986.0
152.063889 1383.0
153.073029 997.0
154.073349 528.0
155.085479 913.0
156.093569 759.0
157.097559 341.0
158.076449 269.0
159.079379 960.0
160.090419 143.0
161.073609 365.0
163.066499 541.0
163.073989 587.0
164.062509 277.0
165.070369 2584.0
166.076259 562.0
167.077639 691.0
169.088099 422.0
169.100839 230.0
170.104869 421.0
171.087519 354.0
171.118289 552.0
172.102579 236.0
173.094849 1153.0
174.101609 140.0
175.095719 665.0
175.112559 429.0
177.078109 379.0
178.079379 1072.0
179.076899 1848.0
180.089049 139.0
181.085589 482.0
181.101409 403.0
183.098859 535.0
184.069139 170.0
185.097929 498.0
185.125909 237.0
186.101549 101.0
187.113219 1727.0
188.088679 143.0
189.086879 611.0
190.083659 224.0
191.079009 1092.0
191.087139 1610.0
192.098679 190.0
193.097929 700.0
194.098399 253.0
195.094599 636.0
196.081019 69.0
196.113949 125.0
197.118059 627.0
198.104059 177.0
199.106339 689.0
201.107379 236.0
202.074029 519.0
203.094679 513.0
204.089889 160.0
205.095959 629.0
205.112789 191.0
206.110119 214.0
207.104229 445.0
208.097909 144.0
209.101039 457.0
209.137879 132.0
210.110849 70.0
211.115979 264.0
212.103529 187.0
213.106249 585.0
213.131989 235.0
215.102979 894.0
216.104129 506.0
217.103259 376.0
219.080888 108.0
219.101178 321.0
220.124648 118.0
221.109728 338.0
222.104278 99.0
223.128868 534.0
224.122118 141.0
225.121948 555.0
226.098968 189.0
226.129898 135.0
229.121308 396.0
231.105158 284.0
233.116998 851.0
234.105208 191.0
235.115038 756.0
236.119508 65.0
237.127618 297.0
238.116728 165.0
239.101838 223.0
239.129098 387.0
240.110208 169.0
241.110078 196.0
242.148598 74.0
243.140488 270.0
244.140498 87.0
245.127238 432.0
246.120568 109.0
247.112838 215.0
247.125168 276.0
248.105558 79.0
249.132738 277.0
250.135698 180.0
251.129808 518.0
252.160108 159.0
253.123948 457.0
253.156678 223.0
255.135338 218.0
257.099748 184.0
259.098458 186.0
259.136308 375.0
260.149698 84.0
261.117598 2965.0
263.117538 665.0
264.146648 221.0
265.141068 429.0
267.117928 325.0
267.135538 307.0
268.140398 109.0
269.137468 340.0
271.150098 172.0
271.169448 739.0
273.158888 106.0
275.103618 117.0
275.139358 198.0
277.151438 228.0
278.132428 80.0
279.126628 1377.0
281.164718 312.0
283.142618 196.0
285.145638 282.0
286.160568 146.0
287.140788 307.0
288.144298 273.0
289.137888 140.0
290.141547 146.0
291.148597 275.0
293.147837 223.0
294.158427 187.0
295.152237 355.0
296.139267 287.0
297.141487 604.0
299.137427 321.0
301.145157 162.0
302.172837 55.0
303.168137 171.0
305.144817 342.0
307.151957 403.0
309.136427 438.0
309.148477 178.0
311.149727 449.0
313.138347 348.0
313.152207 290.0
314.163677 93.0
315.152447 184.0
317.159037 172.0
319.163247 379.0
320.154587 23.0
321.166757 470.0
323.141307 714.0
325.137797 295.0
327.124527 198.0
329.138587 183.0
331.148147 142.0
331.171337 172.0
332.141857 59.0
333.158487 413.0
335.156937 258.0
337.152387 358.0
337.159587 392.0
339.155557 383.0
341.115827 263.0
341.146587 166.0
343.085367 666.0
347.167367 532.0
349.165267 283.0
349.187207 491.0
351.163367 987.0
353.178207 184.0
355.150827 493.0
357.154857 251.0
358.105237 138.0
359.171977 153.0
361.144476 152.0
365.171216 1116.0
367.182626 635.0
367.188276 1486.0
369.148756 946.0
373.128916 540.0
375.162116 368.0
377.170386 1107.0
379.155376 443.0
381.170486 90.0
383.181316 672.0
385.147476 95.0
385.205146 96.0
393.175026 2224.0
395.191906 3000.0
397.163216 1207.0
399.139416 82.0
403.157696 463.0
411.187056 6251.0
413.203776 104.0
415.171546 63.0
421.175276 1806.0
423.147776 92.0
429.186386 118.0
437.738075 108.0
439.176005 5347.0
439.196545 8988.0
457.186775 4350.0
459.034005 89.0
468.565535 135.0
474.242285 183.0
474.276435 75.0

