>compound 
>formula C35H54O10
>parentmass 657.36091893612
>ionization [M + Na]+
>instrumentation Unknown (LCMS)
>source file:/Users/fanzhoukong/Documents/GitHub/Libgen/data/EAD_PFP/0_unknown_/spectrum.ms
>quality UNKNOWN

>ms2peaks
127.057007 101.0
128.062726 175.0
129.066844 136.0
131.080122 212.0
132.072341 47.0
133.099939 38.0
135.120387 39.0
137.096414 22.0
140.048491 47.0
141.067049 115.0
142.075288 231.0
143.083567 90.0
144.087216 48.0
145.099084 129.0
147.116802 43.0
165.0715 183.0
166.071109 155.0
167.076227 104.0
168.080596 157.0
169.098175 63.0
170.107294 75.0
171.109182 81.0
172.092151 57.0
173.1308 90.0
175.111147 74.0
176.062636 94.0
178.076634 121.0
179.084642 66.0
181.00637 78.0
183.035108 45.0
183.117267 55.0
184.108866 63.0
185.128435 118.0
189.06921 100.0
190.074069 105.0
191.003038 123.0
192.984795 138.0
194.956273 66.0
201.157225 102.0
203.143383 158.0
204.148511 84.0
207.030768 244.0
210.029764 23.0
215.174648 64.0
217.156495 58.0
218.159494 53.0
219.173513 118.0
222.126009 54.0
228.088772 43.0
231.137738 38.0
232.111287 25.0
235.128363 67.0
241.190516 75.0
243.129593 62.0
246.223369 48.0
249.182006 81.0
251.157543 88.0
254.18779 45.0
257.046136 35.0
258.132565 49.0
261.145891 36.0
265.024426 64.0
271.164409 32.0
273.152196 63.0
275.158634 60.0
279.172239 57.0
281.044576 211.0
282.048915 39.0
283.051724 41.0
285.109031 23.0
289.177626 98.0
291.175124 47.0
293.171091 80.0
297.168276 72.0
301.194211 23.0
305.177086 35.0
307.184354 106.0
310.16701 25.0
319.113989 45.0
321.129617 42.0
323.188604 101.0
325.202912 138.0
329.193417 45.0
331.108664 23.0
337.197097 92.0
339.194994 123.0
341.204202 47.0
345.757576 23.0
349.119202 23.0
351.17776 68.0
365.118512 94.0
367.13166 55.0
369.187967 67.0
383.13689 67.0
391.26951 41.0
393.190228 92.0
397.121893 24.0
405.187833 144.0
406.198082 32.0
409.109548 33.0
411.123155 88.0
419.329355 122.0
427.152886 54.0
445.310583 36.0
455.117181 61.0
462.311542 38.0
463.312571 373.0
471.145111 24.0
477.248254 36.0
479.311361 35.0
480.28985 24.0
490.305218 31.0
495.302611 24.0
505.274319 24.0
507.306596 161.0
513.297009 24.0
515.134167 750.0
523.303957 32.0
525.324944 73.0
531.169907 48.0
537.344589 24.0
553.30953 170.0
567.326792 41.0
567.366462 60.0
573.348635 66.0
575.156243 1056.0
581.330435 24.0
584.362351 60.0
585.34312 84.0
586.341349 66.0
591.388163 35.0
593.16666 105.0
595.373268 196.0
597.332545 247.0
597.339695 270.0
603.347558 97.0
604.353776 26.0
611.353038 260.0
612.365917 317.0
613.343275 388.0
616.180242 84.0
621.365785 279.0
622.364924 107.0
628.349597 74.0
638.396034 85.0
639.349343 160.0
639.366673 323.0
641.325051 73.0
656.341512 322.0
656.354082 211.0
657.365861 9641.0

