>compound 
>formula C25H34O8
>parentmass 463.23264905238
>ionization [M + H]+
>instrumentation Unknown (LCMS)
>source file:/Users/fanzhoukong/Documents/GitHub/Libgen/data/EAD_PFP/0_unknown_/spectrum.ms
>quality UNKNOWN

>ms2peaks
119.092732 44.0
126.051658 99.0
127.053399 624.0
128.06244 1542.0
129.071011 641.0
130.069012 132.0
131.051803 3313.0
132.057423 704.0
133.065754 2815.0
135.046096 155.0
139.053 248.0
140.05634 43.0
141.071431 727.0
142.075002 115.0
143.073943 204.0
143.084493 301.0
144.055214 694.0
145.066965 802.0
146.073976 94.0
147.083276 241.0
159.077787 127.0
160.093788 41.0
161.094389 250.0
163.0699 63.0
164.062161 266.0
165.071292 790.0
166.074663 165.0
167.086154 387.0
168.060055 166.0
169.068656 869.0
170.075156 236.0
171.083347 2006.0
172.088098 193.0
173.057139 275.0
173.075189 3809.0
174.06766 201.0
174.09351 285.0
175.086311 156.0
175.112231 467.0
176.065042 87.0
177.079083 83.0
178.077733 317.0
179.087044 197.0
181.068126 389.0
182.073977 174.0
182.085877 93.0
183.083948 584.0
184.091389 164.0
185.097599 1423.0
186.07582 53.0
186.08917 54.0
186.10523 204.0
187.115571 5948.0
188.076262 105.0
188.115222 40.0
189.128313 3241.0
190.081994 54.0
191.002855 37.0
191.082755 115.0
192.092936 58.0
193.094886 54.0
194.076237 78.0
195.083338 276.0
195.109338 76.0
197.05998 1335.0
198.098231 269.0
199.077012 366.0
199.096362 513.0
199.112932 274.0
200.095592 59.0
201.100113 382.0
201.125103 248.0
202.079304 205.0
203.070635 79.0
203.083195 317.0
204.081176 85.0
204.117566 123.0
205.081627 66.0
205.095647 123.0
207.034859 83.0
207.079959 204.0
209.09933 174.0
210.075051 146.0
211.111392 1007.0
212.106073 87.0
212.123193 151.0
213.130254 2187.0
214.098145 47.0
215.075385 393.0
216.087976 75.0
217.087077 299.0
218.075458 134.0
219.082029 99.0
220.08946 68.0
221.093401 74.0
223.075912 81.0
223.096392 281.0
223.111022 85.0
224.093933 113.0
225.129004 390.0
226.104555 59.0
227.116206 249.0
227.139826 138.0
228.097537 80.0
229.122508 360.0
231.086999 108.0
233.086801 355.0
235.072693 50.0
235.108743 62.0
237.092655 140.0
237.106235 239.0
237.128845 140.0
239.110646 209.0
240.112977 69.0
241.109808 128.0
243.12188 84.0
243.13103 109.0
245.102422 83.0
247.094083 83.0
249.100005 55.0
249.115455 248.0
251.089187 50.0
251.098497 49.0
251.140407 47.0
253.125229 354.0
254.134629 46.0
255.13664 525.0
257.113592 148.0
261.093575 138.0
263.123637 154.0
263.147467 50.0
265.145609 136.0
267.138471 113.0
269.105082 513.0
270.118453 61.0
271.133714 81.0
273.095506 92.0
273.108446 113.0
275.108238 107.0
275.124468 112.0
277.121819 81.0
277.138139 125.0
279.142751 213.0
281.051143 62.0
281.154623 51.0
282.160764 88.0
283.172025 1765.0
284.138875 46.0
285.152006 332.0
287.105678 64.0
289.12765 97.0
291.103241 65.0
291.140012 85.0
293.152623 259.0
294.163214 91.0
295.170505 614.0
296.145786 53.0
297.144627 104.0
301.13304 95.0
301.16194 69.0
303.140602 120.0
303.173012 92.0
305.154864 1089.0
306.163615 505.0
307.172345 4871.0
309.144787 75.0
310.158408 77.0
311.165029 198.0
313.129481 62.0
315.157432 81.0
316.147763 40.0
317.157064 380.0
318.161005 205.0
319.168296 3217.0
321.184108 361.0
322.157468 32.0
323.163999 166.0
324.18268 164.0
327.173923 62.0
329.156165 386.0
331.171116 3139.0
333.185098 190.0
334.162119 140.0
335.16749 923.0
336.174361 368.0
337.168371 54.0
337.182751 62.0
343.168627 151.0
345.187758 407.0
347.16353 335.0
347.18541 79.0
348.175461 611.0
349.183372 4301.0
355.158017 157.0
355.169097 569.0
359.166201 148.0
360.182461 87.0
361.183382 693.0
363.193144 41.0
365.169166 85.0
366.186347 171.0
367.193698 41.0
372.173752 212.0
373.181713 2549.0
377.173996 224.0
378.188737 84.0
379.191458 248.0
390.187217 610.0
391.190238 2011.0
409.183054 83.0
409.206834 1069.0
427.21383 33.0
444.213784 152.0
463.154721 86.0
463.207421 77.0

