>compound 
>formula C15H10O8
>parentmass 341.02678827886007
>ionization [M + Na]+
>instrumentation Unknown (LCMS)
>source file:/Users/fanzhoukong/Documents/GitHub/Libgen/data/EAD_PFP/0_unknown_/spectrum.ms
>quality UNKNOWN

>ms2peaks
50.013338 92.0
51.022941 221.0
52.023545 32.0
53.038158 61.0
54.033031 14.0
55.044425 5.0
55.053875 103.0
56.055658 10.0
57.070172 18.0
57.937095 5.0
59.929181 6.0
60.983365 27.0
61.004795 6.0
62.015108 22.0
63.022832 112.0
65.034999 14.0
65.038159 629.0
66.045372 40.0
67.052305 80.0
68.024839 4.0
68.994602 119.0
69.068672 7.0
71.047179 5.0
72.934785 5.0
73.045256 7.0
74.015489 31.0
75.008242 6.0
75.020122 27.0
76.029816 78.0
77.039379 490.0
78.040893 91.0
79.053226 284.0
80.05017 25.0
81.069233 104.0
83.04812 10.0
83.08473 6.0
85.049966 7.0
86.01486 8.0
87.020823 5.0
88.027117 9.0
89.03827 143.0
90.034753 7.0
90.041263 19.0
91.054537 1347.0
92.05751 135.0
93.066914 48.0
94.063777 25.0
95.04684 8.0
95.08218 22.0
95.953433 9.0
96.080144 14.0
97.94719 6.0
99.014614 7.0
99.991807 10.0
101.038771 7.0
102.045664 46.0
103.053578 86.0
104.050451 12.0
105.064164 7.0
105.070194 130.0
106.063628 40.0
107.083031 9.0
108.080825 11.0
109.100648 15.0
110.058441 12.0
110.999774 18.0
112.006288 8.0
113.000671 42.0
114.046525 7.0
115.054108 292.0
116.056632 51.0
117.059255 80.0
118.064068 42.0
119.060342 14.0
119.072102 9.0
119.084932 39.0
120.054365 7.0
120.081205 27.0
121.081629 9.0
122.098102 7.0
123.077535 6.0
124.112159 7.0
126.044785 20.0
127.054239 49.0
128.052192 6.0
128.061062 183.0
129.055176 22.0
129.068526 47.0
130.065419 81.0
130.989882 32.0
131.071733 5.0
132.017766 12.0
132.079686 15.0
133.064389 6.0
133.079079 6.0
133.090369 10.0
134.091303 5.0
134.100373 10.0
137.042013 4.0
139.0528 24.0
140.046883 10.0
141.070086 37.0
142.06433 13.0
142.07833 20.0
143.074953 25.0
144.083267 16.0
145.07271 7.0
145.969663 26.0
147.96719 14.0
148.11261 8.0
150.046717 12.0
151.05397 61.0
152.060984 152.0
153.068927 105.0
154.06803 42.0
155.058194 30.0
155.071604 16.0
155.085034 17.0
156.079667 26.0
157.078701 13.0
157.087301 20.0
158.094484 31.0
159.078937 8.0
159.088828 8.0
160.090011 22.0
160.111081 8.0
161.094324 14.0
162.044408 4.0
163.053581 14.0
164.060864 17.0
165.067468 140.0
166.064531 21.0
166.073361 29.0
167.075995 39.0
168.072748 19.0
168.080378 26.0
169.059721 7.0
169.083921 19.0
169.101751 7.0
170.093035 12.0
171.093598 8.0
172.085532 9.0
172.109942 8.0
173.045545 5.0
173.106115 6.0
173.987548 6.0
174.996901 7.0
176.061165 16.0
177.060878 11.0
178.077772 62.0
179.056955 7.0
179.072695 14.0
179.084485 19.0
180.076939 18.0
180.985162 11.0
181.070822 6.0
182.095196 11.0
183.041609 10.0
183.062819 9.0
184.031662 6.0
185.067036 5.0
186.113339 16.0
187.122373 5.0
187.146493 5.0
189.070499 27.0
190.061853 5.0
190.076693 18.0
191.001646 24.0
191.053076 7.0
191.073386 6.0
191.999389 8.0
192.083549 11.0
192.980682 44.0
193.982226 7.0
194.094116 17.0
195.0958 6.0
197.072526 6.0
197.128906 5.0
199.122773 6.0
200.009866 6.0
201.06418 6.0
202.075313 23.0
203.081987 13.0
203.142037 11.0
204.08279 19.0
205.081823 16.0
205.161804 12.0
206.079087 11.0
207.03366 105.0
208.032823 16.0
208.097834 7.0
209.079717 15.0
210.993533 8.0
215.082837 8.0
217.085914 8.0
218.087318 6.0
219.086681 5.0
220.114484 6.0
222.110141 6.0
224.119198 6.0
224.141208 7.0
225.042621 7.0
225.086721 7.0
227.042738 8.0
228.078651 7.0
229.096175 6.0
231.085882 6.0
235.125665 6.0
236.952781 14.0
237.151902 6.0
242.983342 14.0
245.078329 7.0
248.121189 5.0
248.986072 14.0
251.002749 10.0
251.091229 6.0
253.097696 6.0
253.138206 5.0
259.034096 6.0
263.08926 6.0
265.018587 26.0
266.998203 14.0
267.116674 6.0
268.108657 6.0
268.98839 6.0
278.190051 5.0
279.151625 6.0
281.050191 81.0
282.052884 17.0
283.047458 16.0
287.166182 6.0
295.130899 6.0
317.032403 5.0
318.034386 21.0
319.04147 6.0
323.120924 6.0
323.150864 20.0
324.98668 6.0
340.019331 13.0
341.029864 18.0
341.120315 13.0
341.149245 45.0
341.161915 35.0
341.181835 11.0

