>compound 
>formula C19H18N4O7
>parentmass 415.12482993485
>ionization [M + H]+
>instrumentation Unknown (LCMS)
>source file:/Users/fanzhoukong/Documents/GitHub/Libgen/data/EAD_PFP/0_unknown_/spectrum.ms
>quality UNKNOWN

>ms2peaks
50.014408 55.0
51.023309 80.0
52.016151 35.0
53.014272 110.0
53.039232 40.0
54.021154 1335.0
55.027335 3417.0
56.036937 35.0
57.034998 50.0
63.022377 33.0
65.04004 5066.0
66.021002 29.0
67.025333 149.0
67.029343 1049.0
67.040573 223.0
68.021894 50.0
68.997326 15.0
69.035576 289.0
70.040367 49.0
71.013609 50.0
71.021029 55.0
71.043329 30.0
73.027932 15.0
73.037982 21.0
75.023765 292.0
76.031766 231.0
77.037898 657.0
78.040259 17.0
78.046319 55.0
79.029071 35.0
79.055191 151.0
80.024972 28.0
81.033294 905.0
82.039935 2258.0
83.018877 469.0
84.020678 17.0
84.052108 27.0
85.02668 64.0
85.06282 20.0
86.041391 18.0
89.024586 53.0
89.029206 61.0
89.035676 64.0
90.047937 24.0
91.050959 355.0
91.054699 1516.0
92.02665 450.0
93.032101 436.0
94.042073 4478.0
95.049844 600.0
96.055316 136.0
97.030367 3983.0
98.54642 17.0
101.035923 12.0
102.039835 24.0
102.046765 64.0
103.016876 61.0
103.046716 176.0
103.054666 511.0
104.027558 633.0
105.032129 272.0
105.043169 175.0
106.038491 65.0
107.026352 185.0
108.046274 422.0
109.029095 437.0
109.675496 17.0
110.038977 7676.0
111.035958 55.0
111.046278 256.0
112.05092 28.0
113.062161 23.0
114.047603 12.0
115.055194 1092.0
116.043985 15.0
116.053486 53.0
116.064046 65.0
117.061397 50.0
117.071997 582.0
118.038538 47.0
118.642779 18.0
118.683329 33.0
118.87657 26.0
119.03577 9272.0
119.706851 18.0
120.020021 1262.0
121.032043 3234.0
122.036404 177.0
123.063386 31.0
123.073176 38.0
124.047757 61.0
124.052127 326.0
125.025099 26.0
126.03816 15.0
126.04696 28.0
127.053102 273.0
128.063243 808.0
128.068783 294.0
129.055135 48.0
129.069595 652.0
130.046376 19.0
130.065356 23.0
131.051498 137.0
131.059348 120.0
131.077288 103.0
132.052599 26.0
132.071749 34.0
133.024771 59.0
133.034931 98.0
133.050761 169.0
134.040182 28.0
135.024184 73.0
135.044654 92.0
135.181304 26.0
136.036895 505.0
136.584726 61.0
136.605346 121.0
136.790886 16.0
137.049957 12680.0
137.987368 103.0
138.056428 75.0
138.547199 19.0
139.038829 32.0
141.064152 138.0
143.049045 62.0
143.060755 98.0
143.070135 203.0
143.087695 28.0
144.056087 48.0
144.060797 45.0
145.064308 207.0
146.05828 37.0
146.0725 179.0
146.557151 14.0
146.816981 18.0
147.046151 1529.0
148.065963 68.0
148.077883 35.0
148.518084 20.0
148.538394 14.0
149.029494 9743.0
150.051346 421.0
150.403136 19.0
151.063437 1556.0
152.060809 251.0
153.07117 306.0
153.772511 13.0
154.062982 52.0
155.049443 98.0
155.057993 70.0
155.066533 38.0
156.086805 47.0
157.064996 832.0
158.072108 43.0
159.045359 932.0
160.053831 43.0
160.076161 29.0
161.059282 307.0
162.022983 21.0
162.104034 76.0
163.039585 349.0
163.067095 80.0
164.044306 32.0
164.679797 70.0
165.055898 439.0
166.076899 11.0
167.035231 106.0
167.050411 92.0
168.058512 78.0
169.065824 441.0
170.069745 34.0
171.052327 176.0
171.071517 104.0
172.074968 15.0
173.04654 48.0
173.05942 211.0
174.068671 57.0
174.992713 15.0
175.035483 22.0
175.054923 30.0
175.065303 29.0
176.069954 9.0
177.057946 461.0
178.074837 29.0
178.086587 15.0
179.060559 884.0
180.08055 13.0
181.066532 107.0
183.046555 36.0
183.570455 31.0
184.057886 17.0
185.063998 2763.0
186.054159 41.0
186.066189 33.0
187.069741 152.0
187.077781 1622.0
188.034342 20.0
188.043742 42.0
188.055832 37.0
189.057993 688.0
189.078203 39.0
190.064165 60.0
190.410045 17.0
190.435745 32.0
190.469546 35.0
191.075696 11054.0
192.065508 18.0
192.155118 36.0
192.259688 38.0
192.448548 18.0
192.755799 19.0
192.978919 16.0
193.036079 17.0
193.35061 16.0
194.761662 26.0
195.759573 18.0
197.065205 506.0
198.066247 30.0
199.082258 25.0
199.313159 6.0
200.56952 14.0
201.049831 429.0
201.056781 1282.0
202.055343 63.0
202.063703 93.0
203.071754 1627.0
204.090716 39.0
204.103306 97.0
205.075737 75.0
205.086967 773.0
206.072989 18.0
206.79785 32.0
207.05431 36.0
207.06561 97.0
207.924971 6.0
209.097633 17.0
210.063424 21.0
211.065596 21.0
213.064209 43.0
214.05487 25.0
214.09214 25.0
215.075122 1409.0
216.073313 34.0
216.089153 19.0
216.432034 38.0
217.043515 35.0
217.083935 15.0
218.324097 29.0
218.345807 28.0
218.354487 32.0
218.429777 24.0
219.068718 12921.0
220.058699 20.0
220.22729 60.0
220.28544 35.0
220.40616 27.0
220.52688 43.0
221.082951 212.0
222.306703 20.0
222.588683 23.0
223.913345 20.0
224.079025 31.0
225.055257 289.0
226.064538 19.0
226.921109 27.0
227.19715 13.0
228.236371 22.0
229.068873 39.0
230.055904 18.0
230.600045 15.0
232.072147 25.0
232.103487 13.0
233.082059 929.0
234.08818 25.0
234.10767 44.0
238.055736 24.0
239.052817 14.0
239.066467 23.0
241.876812 24.0
242.242602 33.0
242.265472 25.0
242.283772 25.0
243.068163 15894.0
243.933385 14.0
244.071105 21.0
244.179785 53.0
244.306845 35.0
244.423225 37.0
245.154336 23.0
247.072269 27.0
247.090769 18.0
247.50517 20.0
248.071081 11.0
249.890433 28.0
251.003565 46.0
252.164257 308.0
252.614047 17.0
257.075664 90.0
257.089794 34.0
260.090738 70.0
260.204509 44.0
260.213999 30.0
261.07753 12521.0
262.080431 18.0
262.099471 28.0
262.275532 20.0
262.710402 22.0
263.080493 32.0
263.253713 15.0
263.741894 25.0
263.924884 19.0
265.086356 23.0
265.245866 22.0
267.087029 16.0
271.877626 15.0
274.4487 28.0
276.087012 17.0
278.100925 23.0
278.159735 19.0
278.180975 23.0
279.093427 11136.0
279.902478 15.0
280.094278 23.0
281.050919 13.0
282.048661 19.0
282.588542 22.0
283.043222 31.0
285.251056 31.0
286.974358 15.0
290.775504 26.0
292.036406 59.0
303.090922 30.0
303.121622 18.0
305.099875 25.0
309.249661 15.0
311.119894 17.0
322.02891 6.0
325.070265 6.0
351.109733 24.0
355.096919 16.0
395.100068 19.0
397.112151 29.0
415.059478 19.0
415.125358 17.0
415.265068 22.0

