>compound 
>formula C20H24O5
>parentmass 367.1515948713701
>ionization [M + Na]+
>instrumentation Unknown (LCMS)
>source file:/Users/fanzhoukong/Documents/GitHub/Libgen/data/EAD_PFP/0_unknown_/spectrum.ms
>quality UNKNOWN

>ms2peaks
50.012786 135.0
51.02169 590.0
52.015934 5.0
52.028654 110.0
53.036898 97.0
54.032483 13.0
54.045453 5.0
55.053327 146.0
55.93342 6.0
56.047781 24.0
57.068145 19.0
57.932819 12.0
58.063379 4.0
59.046893 32.0
59.929407 7.0
60.982831 46.0
61.005011 19.0
62.014565 74.0
63.021519 202.0
64.021684 11.0
64.027954 22.0
65.039198 1029.0
66.040862 56.0
67.051776 226.0
68.0243 6.0
68.993254 122.0
69.068134 8.0
71.084633 7.0
73.045561 6.0
74.012425 45.0
75.021289 60.0
76.029283 118.0
77.037987 1362.0
78.043821 389.0
79.052695 366.0
80.050519 65.0
81.069584 109.0
82.064928 10.0
83.049382 12.0
83.083312 8.0
85.0648 7.0
86.011604 5.0
87.023948 6.0
88.027512 17.0
89.037746 226.0
90.038881 22.0
91.053085 1027.0
92.056049 122.0
93.060723 38.0
93.066393 79.0
94.063257 25.0
95.046321 7.0
95.083571 45.0
96.077705 11.0
97.10017 12.0
98.013573 13.0
99.994221 7.0
100.108872 10.0
101.040226 14.0
102.04416 158.0
103.054054 550.0
104.060928 241.0
105.070682 82.0
106.063116 34.0
107.04704 425.0
108.056895 14.0
108.074205 5.0
109.041819 6.0
109.100129 21.0
110.996167 10.0
112.999115 48.0
114.044969 10.0
115.055703 1808.0
116.059287 212.0
117.068282 861.0
118.040146 6.0
118.078456 21.0
119.07373 20.0
119.08122 255.0
121.060638 17.0
121.068188 16.0
121.099448 8.0
122.095432 10.0
123.040076 10.0
123.080286 47.0
123.115066 6.0
125.037754 5.0
126.046479 31.0
126.903602 14.0
127.052633 132.0
128.060557 453.0
129.066911 174.0
130.064915 93.0
131.047689 613.0
132.056683 659.0
133.077447 8.0
133.098918 31.0
134.094192 7.0
136.11076 5.0
137.128694 5.0
139.058082 14.0
139.910766 4.0
140.048706 11.0
141.06377 41.0
141.926074 9.0
142.076664 12.0
143.059208 11.0
143.080319 19.0
144.082763 25.0
145.063947 35.0
145.075747 28.0
146.069771 35.0
146.082801 13.0
146.597133 10.0
146.605413 18.0
147.085015 3673.0
147.965509 10.0
149.020783 12.0
149.096133 16.0
150.046207 11.0
151.052271 57.0
152.062915 115.0
153.05266 16.0
153.06479 60.0
154.068754 45.0
155.054028 7.0
155.063798 24.0
155.072328 20.0
155.082088 24.0
156.064482 7.0
156.074262 20.0
157.063486 5.0
157.081896 13.0
157.089266 16.0
158.08537 5.0
158.09399 37.0
158.994444 16.0
159.096984 14.0
159.115524 19.0
160.113069 11.0
161.055292 14.0
161.093833 15.0
161.128643 8.0
162.042676 6.0
162.126227 16.0
162.99554 9.0
163.053081 14.0
164.054095 14.0
165.064459 12.0
165.068249 125.0
166.074143 38.0
167.072967 38.0
167.094497 12.0
168.079871 25.0
169.073255 10.0
169.091075 12.0
170.054209 8.0
170.09637 5.0
170.10403 5.0
171.093114 7.0
171.105924 10.0
171.117454 5.0
172.104328 13.0
173.018002 5.0
173.112072 15.0
173.134002 7.0
175.00031 6.0
175.11048 11.0
175.14678 17.0
176.059374 17.0
177.053858 6.0
177.069518 6.0
177.129468 8.0
178.075992 41.0
179.059086 13.0
179.084007 13.0
180.079081 15.0
180.984664 6.0
181.083505 8.0
181.091425 14.0
181.120435 12.0
182.090749 9.0
182.191229 7.0
183.034493 7.0
183.084863 6.0
183.095463 5.0
183.115343 11.0
184.020547 10.0
185.098541 6.0
186.124885 8.0
187.052209 7.0
187.062929 7.0
187.14199 10.0
188.061103 6.0
189.065978 9.0
189.126598 5.0
190.065422 11.0
190.073522 16.0
190.999795 45.0
191.078336 11.0
191.99891 16.0
192.07357 5.0
192.980214 35.0
193.083654 8.0
193.980378 6.0
194.095008 16.0
195.066602 10.0
195.096692 18.0
196.110566 6.0
197.089921 5.0
197.116041 7.0
198.122735 6.0
199.169309 23.0
200.001062 6.0
201.127597 8.0
202.074841 22.0
203.142945 14.0
204.082309 18.0
205.070113 5.0
205.159914 11.0
207.031761 74.0
208.029525 12.0
209.02826 9.0
209.18833 5.0
211.054248 7.0
215.080934 17.0
216.090659 6.0
217.088323 9.0
217.192273 7.0
219.061551 13.0
219.118101 5.0
219.173221 9.0
220.108185 5.0
221.075749 91.0
221.115079 6.0
223.096237 6.0
225.036265 12.0
225.073006 15.0
225.221476 25.0
226.04404 5.0
227.181034 8.0
228.081138 6.0
229.113492 5.0
230.090226 7.0
230.98117 5.0
231.10477 9.0
231.171791 9.0
233.067268 10.0
233.154039 6.0
235.095147 5.0
237.104655 8.0
237.145385 7.0
239.146953 7.0
240.153908 6.0
241.089991 6.0
242.984379 13.0
243.17532 12.0
244.115724 5.0
245.114668 8.0
247.131056 6.0
248.987154 17.0
249.147954 7.0
250.076578 6.0
250.986762 7.0
251.157513 5.0
253.115921 5.0
256.118733 5.0
257.119957 3.0
265.01812 17.0
265.13775 8.0
266.022184 8.0
266.997738 11.0
268.973456 6.0
270.129861 6.0
271.170975 17.0
273.137753 5.0
274.158687 6.0
275.199402 5.0
278.096453 6.0
279.131518 6.0
281.048066 64.0
282.05078 16.0
283.050294 13.0
285.135722 29.0
286.107556 6.0
287.203881 6.0
289.174589 14.0
291.228887 4.0
293.171375 9.0
293.208296 7.0
295.155664 5.0
299.06129 7.0
301.133378 6.0
303.226257 10.0
303.265497 10.0
305.206575 8.0
307.152143 12.0
311.129179 5.0
313.249518 8.0
317.174984 6.0
321.246041 8.0
321.270611 13.0
323.183859 6.0
331.271502 29.0
332.265406 5.0
335.221868 10.0
349.195006 6.0
349.273746 18.0
367.15697 13.0
367.17198 197.0
367.19075 196.0
367.22078 13.0
367.23393 21.0

