>compound 
>formula C9H10N2O5
>parentmass 227.067273457845
>ionization [M + H]+
>instrumentation Unknown (LCMS)
>source file:/Users/fanzhoukong/Documents/GitHub/Libgen/data/NIST_MONA/0_unknown_/spectrum.ms
>quality UNKNOWN

>ms2peaks
39.0215 5.23
39.0974 0.71
43.015 1.7
44.0127 0.6
50.0152 1.14
51.0223 3.16
53.0383 6.31
55.0173 1.19
62.0155 1.2
63.0226 18.12
63.0565 0.63
63.2231 0.52
65.0386 35.72
65.3426 0.66
66.0459 1.78
68.0077 0.97
68.0506 0.61
75.0222 1.53
76.0166 0.53
78.0336 3.4
78.0452 7.69
78.2495 0.63
79.0418 7.89
79.0517 5.94
80.0493 7.93
81.0343 1.23
81.0549 0.96
82.0625 1.19
89.0374 0.89
90.034 57.99
90.0889 1.78
90.1007 0.58
91.0409 1.85
91.0528 1.66
92.0232 1.32
92.0474 3.2
93.043 2.34
94.0404 6.67
102.0336 4.77
104.0278 0.56
104.0492 15.6
104.0903 0.57
105.036 0.97
105.058 22.28
105.1149 0.64
106.0412 26.45
106.064 7.78
107.0524 7.08
107.0733 1.78
108.0552 5.11
109.0277 2.47
109.0488 0.96
111.0519 0.75
116.0309 0.91
117.0444 81.26
117.0887 2.98
117.1042 2.14
117.1209 0.94
117.2378 0.52
118.052 15.64
119.0337 2.18
119.0574 0.68
120.0177 1.07
120.0456 8.35
121.0319 1.48
122.0371 11.84
122.0835 0.57
132.0484 0.92
133.0529 47.26
133.1168 1.22
133.1355 0.56
133.1975 0.73
133.2842 0.76
133.4739 0.6
134.0379 1.55
134.0594 6.56
134.7866 0.97
135.0665 20.71
135.3024 0.56
136.0393 22.26
136.0723 1.84
136.0915 1.0
145.039 2.82
146.0484 7.75
150.0151 2.73
163.0455 2.52
164.0352 6.28
164.0514 3.27
168.0286 22.75
168.0835 1.07
168.1009 0.54
181.0602 100.0
181.1564 1.56
181.1893 1.0
181.2277 0.61
181.2582 1.21
181.5418 0.61
210.0416 1.23

