>compound 
>formula C14H18O7
>parentmass 321.09447391713
>ionization [M + Na]+
>instrumentation Unknown (LCMS)
>source file:/Users/fanzhoukong/Documents/GitHub/Libgen/data/EAD_PFP/0_unknown_/spectrum.ms
>quality UNKNOWN

>ms2peaks
50.016375 113.0
51.023182 381.0
52.03154 134.0
53.039777 130.0
54.035374 23.0
55.055482 148.0
56.054319 19.0
56.966727 103.0
57.070277 52.0
59.051261 16.0
60.983396 37.0
62.015884 55.0
63.022811 153.0
64.030798 31.0
65.040466 930.0
66.043703 51.0
67.05541 174.0
68.023098 30.0
68.994455 124.0
74.015242 56.0
75.01815 45.0
76.030377 63.0
77.039924 940.0
78.044882 155.0
79.053739 258.0
81.048554 17.0
81.071484 74.0
82.053511 17.0
83.083398 18.0
84.960984 1125.0
85.966221 26.0
86.955438 46.0
89.040493 181.0
90.03976 38.0
90.04812 61.0
91.055818 1787.0
92.054075 237.0
92.994473 25.0
93.037932 49.0
93.071012 66.0
94.06787 58.0
95.084377 62.0
97.027602 14.0
97.95034 19.0
98.014339 24.0
99.018747 15.0
99.993984 13.0
101.006482 22.0
102.044869 67.0
102.951346 17.0
103.054746 130.0
104.053604 37.0
105.069331 135.0
106.068808 49.0
107.076056 32.0
108.080933 28.0
109.09664 20.0
110.999835 54.0
112.005293 13.0
112.99966 45.0
114.006798 13.0
115.055165 558.0
116.058732 103.0
117.05711 44.0
117.065589 124.0
118.071477 27.0
118.949155 18.0
119.062434 16.0
119.073124 49.0
120.078992 32.0
121.038439 17.0
121.098799 34.0
122.081776 20.0
123.042654 68.0
124.052021 40.0
125.000889 13.0
126.045736 27.0
126.906164 15.0
127.055183 66.0
128.059781 203.0
129.066118 74.0
130.073035 112.0
130.993033 29.0
131.074893 59.0
132.0198 18.0
132.08397 24.0
133.059638 27.0
133.074308 34.0
134.980723 37.0
137.060077 23.0
138.056205 36.0
139.057102 30.0
140.051179 28.0
141.066247 48.0
141.927374 32.0
142.069804 48.0
144.072299 33.0
145.075856 27.0
145.970424 36.0
147.082711 24.0
151.052291 17.0
152.061708 88.0
153.065985 102.0
154.067513 72.0
155.07595 51.0
156.081557 42.0
157.075695 40.0
157.096555 31.0
158.096372 40.0
159.094419 32.0
160.077007 21.0
160.114207 18.0
161.097444 50.0
162.063742 7.0
162.976649 972.0
163.983667 19.0
164.065226 23.0
164.969904 413.0
166.067631 27.0
167.071509 68.0
168.065696 15.0
168.077116 26.0
169.066653 14.0
169.078113 33.0
170.052681 18.0
170.093561 16.0
170.099961 17.0
171.095418 26.0
171.117198 20.0
172.101495 19.0
173.083443 12.0
174.998698 10.0
176.066865 21.0
177.066572 22.0
178.07825 41.0
179.082327 28.0
180.080015 27.0
180.986902 52.0
181.085772 16.0
182.099609 25.0
182.977087 28.0
184.041384 14.0
184.103854 24.0
185.040792 15.0
185.092781 18.0
188.060614 15.0
188.133173 32.0
189.068171 37.0
190.067618 13.0
191.004706 60.0
192.001103 15.0
192.982371 56.0
193.981178 13.0
194.097178 21.0
195.090645 35.0
196.108603 14.0
198.050428 44.0
199.051195 15.0
200.060012 14.0
200.119592 20.0
202.078347 34.0
203.086424 19.0
204.080212 10.0
205.100289 15.0
206.093366 17.0
207.026814 77.0
208.030201 21.0
209.020419 23.0
209.122409 12.0
210.999384 20.0
211.081923 17.0
212.122191 12.0
215.082963 25.0
216.07831 14.0
216.15462 23.0
217.091788 17.0
218.085975 11.0
218.098995 20.0
222.130644 22.0
225.045597 21.0
225.913485 16.0
227.070802 14.0
228.078669 14.0
230.092174 13.0
239.08218 16.0
241.090355 13.0
242.9939 51.0
243.171069 10.0
246.129822 14.0
248.158056 24.0
250.999429 14.0
257.153163 16.0
259.136318 18.0
265.019842 48.0
266.997837 23.0
268.034514 14.0
272.236773 17.0
275.106826 13.0
281.05133 90.0
282.052388 58.0
283.046955 27.0
303.121982 42.0
303.142452 17.0
321.084115 74.0
321.099925 591.0

