>compound 
>formula C21H26O6
>parentmass 375.1802195554001
>ionization [M + H]+
>instrumentation Unknown (LCMS)
>source file:/Users/fanzhoukong/Documents/GitHub/Libgen/data/EAD_PFP/0_unknown_/spectrum.ms
>quality UNKNOWN

>ms2peaks
115.052834 1454.0
116.057463 144.0
117.067522 1056.0
118.060661 31.0
119.04838 65.0
119.083651 117.0
120.08315 24.0
121.064179 69.0
122.638663 35.0
123.048007 6489.0
124.051956 141.0
126.044615 66.0
127.054074 351.0
128.058693 320.0
129.070602 124.0
130.061912 30.0
131.045811 139.0
131.085051 48.0
132.05027 29.0
145.060829 275.0
147.079498 94.0
148.051747 56.0
149.058306 2210.0
151.053924 46.0
151.071974 78.0
152.060944 297.0
153.072513 131.0
154.072862 92.0
155.059361 28.0
155.088641 42.0
157.062719 108.0
157.08236 143.0
158.064919 59.0
158.080919 68.0
159.103638 615.0
159.117228 418.0
160.081317 28.0
161.059496 158.0
162.065605 81.0
163.081105 2584.0
164.059614 63.0
164.075924 63.0
165.062443 132.0
165.073773 244.0
166.067082 42.0
167.072211 114.0
168.06006 57.0
169.09541 284.0
170.075169 68.0
170.094319 51.0
171.107728 65.0
172.086867 43.0
173.089407 100.0
173.097147 124.0
175.077305 86.0
176.059924 64.0
176.082014 31.0
177.086983 301.0
178.072602 65.0
179.077992 58.0
180.080961 48.0
181.09462 106.0
182.076759 94.0
183.107959 69.0
185.055136 25.0
185.096447 69.0
185.099117 163.0
186.061316 33.0
187.115765 3837.0
188.111395 22.0
189.075983 179.0
189.090824 136.0
190.084923 60.0
191.003101 36.0
191.107362 156.0
193.09922 133.0
195.094569 45.0
195.117819 35.0
197.107037 44.0
199.080075 134.0
201.085164 56.0
202.074083 41.0
203.100302 75.0
204.094151 29.0
205.119871 1595.0
207.031018 27.0
209.101147 74.0
210.069806 46.0
211.071975 25.0
211.107566 65.0
212.080835 33.0
214.148764 40.0
215.106032 30.0
217.086121 39.0
218.0832 22.0
221.105597 40.0
221.139088 60.0
223.111576 69.0
225.154565 41.0
227.068062 49.0
227.084322 93.0
229.097921 74.0
232.122279 24.0
233.090447 54.0
233.121868 96.0
234.158047 42.0
235.148466 39.0
237.090314 42.0
237.146135 38.0
239.106793 54.0
241.119651 28.0
245.078658 73.0
247.147227 75.0
248.123055 37.0
251.162973 95.0
253.129191 103.0
255.13751 37.0
259.099096 56.0
261.149895 90.0
262.186275 45.0
265.018951 46.0
265.164122 20.0
267.11864 30.0
268.139489 36.0
269.151069 142.0
271.115377 34.0
272.168086 36.0
273.156445 42.0
275.130393 30.0
278.218222 33.0
279.14221 321.0
281.047318 78.0
281.154069 37.0
282.050017 58.0
283.164927 35.0
287.156634 50.0
289.178802 41.0
296.141976 59.0
297.150956 396.0
299.165594 22.0
304.20204 38.0
307.173688 40.0
307.213178 12.0
311.200985 51.0
313.155133 42.0
314.159682 79.0
315.158871 1123.0
317.066058 45.0
321.236477 24.0
322.204656 29.0
325.162073 28.0
329.17191 50.0
331.181598 56.0
339.196692 79.0
340.189741 41.0
343.137648 49.0
357.162037 165.0
357.252767 51.0
375.209412 1521.0
375.215122 2022.0

