>compound 
>formula C59H94O30
>parentmass 1300.61681261672
>ionization [M + H3N + H]+
>instrumentation Unknown (LCMS)
>source file:/Users/fanzhoukong/Documents/GitHub/Libgen/data/EAD_PFP/0_unknown_/spectrum.ms
>quality UNKNOWN

>ms2peaks
126.045483 64.0
127.047203 112.0
128.061754 248.0
129.066984 69.0
130.064984 121.0
131.081394 102.0
133.097845 165.0
139.052306 56.0
141.066086 82.0
142.067307 106.0
143.080277 36.0
145.048577 79.0
145.078067 242.0
146.108798 56.0
147.109918 65.0
163.059161 152.0
165.065512 273.0
166.063832 153.0
167.080342 99.0
169.097212 84.0
170.092293 48.0
171.110803 160.0
173.043493 210.0
173.132423 86.0
174.097943 23.0
175.147794 120.0
177.163084 119.0
180.080085 137.0
181.076615 74.0
182.106275 55.0
183.092475 65.0
184.117226 54.0
185.131516 163.0
187.141616 266.0
189.066937 127.0
189.161237 73.0
191.083337 109.0
192.981157 79.0
194.106858 77.0
197.114228 42.0
199.058259 56.0
200.058789 48.0
201.160459 43.0
201.166019 251.0
202.078519 77.0
202.118909 23.0
203.14105 232.0
205.07382 75.0
206.09497 134.0
207.02985 155.0
213.165222 92.0
215.084642 134.0
217.107933 83.0
217.190223 23.0
219.172593 92.0
221.149403 76.0
223.056084 67.0
226.077244 90.0
228.096735 34.0
230.096945 23.0
231.180015 89.0
233.099446 84.0
235.127446 69.0
237.141607 57.0
239.084057 68.0
241.069418 78.0
242.097188 39.0
244.119488 65.0
246.159419 62.0
247.170249 94.0
249.165649 23.0
251.17837 54.0
253.19453 48.0
259.083141 67.0
263.176802 47.0
265.013963 47.0
265.181443 72.0
281.050246 151.0
282.049666 70.0
287.196097 23.0
289.088458 94.0
295.102289 145.0
303.172111 23.0
305.092341 23.0
307.099331 58.0
325.113705 556.0
335.098387 22.0
353.107091 44.0
357.122222 24.0
375.299446 27.0
379.123697 66.0
385.132818 24.0
393.3137 198.0
395.32316 83.0
403.302072 70.0
411.328903 199.0
419.294385 103.0
421.308766 277.0
423.317886 63.0
423.325946 27.0
435.152059 24.0
439.312339 80.0
439.316459 611.0
449.300102 28.0
451.150052 52.0
455.316953 108.0
456.320883 110.0
457.162503 205.0
467.307675 39.0
467.311915 119.0
468.324706 58.0
481.289978 24.0
483.312259 70.0
484.320679 127.0
487.157649 377.0
487.159819 844.0
495.325741 24.0
500.313542 66.0
502.329253 88.0
503.324343 208.0
553.368603 44.0
572.370077 29.0
583.18514 85.0
599.363733 24.0
616.356897 60.0
617.356897 70.0
619.186187 24.0
619.203277 508.0
629.36093 74.0
635.356841 25.0
647.386693 127.0
649.207554 454.0
649.222504 613.0
663.384127 25.0
665.394077 177.0
724.37969 25.0
725.39251 25.0
743.391294 25.0
779.413211 30.0
781.265872 846.0
797.426945 104.0
809.441778 55.0
826.436531 68.0
827.447821 601.0
928.521273 25.0
959.479469 114.0
974.485212 39.0
987.488325 61.0
988.482895 57.0
989.502606 313.0
1004.507559 124.0
1018.537162 26.0
1104.56251 86.0
1106.57545 261.0
1106.59498 179.0
1115.522352 26.0
1120.573373 174.0
1121.554093 642.0
1134.457896 22.0
1138.569477 104.0
1151.55397 340.0
1166.551903 246.0
1166.561913 588.0
1168.630513 26.0
1196.560819 89.0
1196.584499 75.0
1252.571691 26.0
1282.583297 41.0
1283.597338 299.0
1299.591481 579.0
1299.626881 778.0
1300.598191 2216.0
1300.619431 8144.0

