>compound 
>formula C19H21NO4
>parentmass 350.13627915954004
>ionization [M + Na]+
>instrumentation Unknown (LCMS)
>source file:/Users/fanzhoukong/Documents/GitHub/Libgen/data/EAD_PFP/0_unknown_/spectrum.ms
>quality UNKNOWN

>ms2peaks
50.018586 193.0
51.026091 431.0
52.030925 47.0
52.033045 105.0
53.04199 95.0
54.036854 10.0
54.042614 19.0
55.058409 244.0
55.937774 9.0
56.054323 24.0
56.062393 11.0
57.073218 21.0
57.940123 6.0
59.933702 7.0
60.987117 52.0
62.019611 38.0
63.026556 202.0
64.03064 13.0
65.042655 794.0
66.048269 56.0
67.057594 346.0
68.028508 7.0
68.051138 15.0
68.997453 159.0
69.072333 9.0
73.049711 9.0
74.017406 22.0
75.007591 5.0
75.021171 23.0
76.035105 75.0
77.04123 778.0
78.046184 116.0
79.055899 326.0
80.052823 112.0
81.063058 13.0
81.072758 95.0
82.070742 29.0
83.085557 8.0
85.012806 10.0
85.056166 8.0
86.015601 11.0
87.024276 11.0
88.03424 10.0
89.041715 155.0
90.046549 25.0
91.057954 1040.0
92.059968 110.0
93.062753 39.0
93.068423 113.0
94.070007 55.0
95.062632 12.0
95.080782 6.0
95.089372 20.0
96.076787 6.0
96.084467 8.0
97.068331 7.0
98.098916 16.0
99.995125 17.0
100.110745 5.0
101.04306 16.0
102.048964 108.0
103.054869 104.0
104.056713 20.0
105.071448 120.0
106.069912 40.0
107.084247 13.0
108.069802 8.0
108.081002 14.0
109.103866 13.0
111.006066 8.0
113.003845 28.0
113.040295 6.0
115.059364 370.0
116.060818 96.0
117.068743 112.0
118.069308 38.0
119.077342 31.0
119.088032 49.0
120.084297 33.0
121.085791 9.0
121.101951 11.0
122.099016 13.0
123.043641 5.0
123.08168 6.0
125.00187 5.0
126.048914 34.0
126.057714 13.0
126.90382 5.0
127.058359 99.0
128.067403 238.0
129.072638 62.0
130.069513 64.0
130.995098 17.0
131.061267 10.0
131.075837 28.0
131.085917 24.0
132.021862 12.0
132.078152 8.0
133.080886 7.0
134.098781 15.0
136.1256 5.0
139.054524 18.0
140.052079 8.0
141.071783 114.0
141.929428 7.0
142.069508 26.0
142.080018 22.0
143.068402 12.0
143.077782 20.0
144.084917 31.0
145.075511 9.0
145.092041 50.0
145.971276 21.0
146.102666 10.0
147.057411 7.0
147.11802 12.0
147.967586 24.0
149.06712 6.0
150.049454 42.0
151.056719 35.0
152.055274 11.0
152.063733 158.0
153.071638 129.0
154.067093 62.0
154.075603 33.0
155.066997 14.0
155.081627 20.0
155.087727 31.0
156.071332 6.0
156.081132 22.0
156.893597 8.0
157.069106 10.0
157.086296 16.0
157.101026 9.0
158.097161 21.0
159.069246 9.0
159.084075 8.0
159.093945 10.0
160.11248 19.0
161.095705 11.0
162.129349 9.0
162.999904 14.0
163.057444 19.0
164.055939 7.0
164.063469 28.0
165.071313 139.0
166.075948 31.0
167.081092 49.0
168.077837 13.0
169.066091 7.0
169.080101 19.0
169.094111 6.0
169.108111 13.0
170.081496 7.0
170.100666 17.0
171.049981 9.0
171.09484 14.0
172.115045 10.0
173.05963 14.0
173.0893 6.0
174.130914 9.0
175.149738 21.0
176.064924 22.0
176.148133 7.0
177.060708 23.0
178.078903 59.0
178.965008 5.0
179.086917 18.0
180.083302 31.0
180.092512 21.0
180.991517 18.0
181.089056 20.0
181.103546 9.0
182.097611 20.0
182.1941 27.0
183.038686 13.0
183.082436 17.0
184.0407 13.0
184.11246 6.0
185.046755 6.0
186.087619 5.0
186.129049 8.0
187.045654 9.0
187.064404 5.0
187.126054 5.0
188.112288 21.0
189.072803 47.0
190.074948 22.0
191.003933 42.0
191.087882 20.0
192.077707 20.0
192.096697 11.0
192.176826 7.0
192.985692 67.0
193.091841 16.0
193.984497 9.0
194.099116 11.0
195.069321 20.0
195.089851 7.0
196.098185 12.0
197.083 5.0
197.133889 12.0
198.124054 8.0
200.067464 21.0
200.149233 12.0
201.081638 17.0
202.078873 26.0
203.088357 10.0
203.112077 8.0
203.142797 27.0
204.089132 11.0
204.145111 6.0
205.081156 7.0
205.100796 6.0
205.159726 16.0
207.035786 149.0
208.03776 22.0
209.016665 11.0
209.032245 25.0
209.083245 8.0
210.997014 8.0
211.152154 5.0
212.057029 6.0
212.114088 6.0
212.996714 8.0
213.072503 5.0
214.070318 8.0
215.073362 7.0
215.090612 25.0
216.080177 5.0
217.090801 11.0
218.099446 9.0
219.090111 6.0
219.11476 8.0
220.112085 6.0
221.13644 10.0
222.055155 10.0
224.072734 29.0
225.021018 6.0
225.044538 23.0
225.166528 6.0
226.019903 5.0
226.084703 10.0
228.095312 8.0
229.103956 10.0
230.891197 8.0
232.1164 23.0
235.125944 7.0
236.107858 6.0
237.073723 20.0
238.061188 86.0
239.088572 8.0
240.101477 8.0
241.093721 6.0
242.116956 21.0
242.986571 16.0
244.081145 4.0
248.989259 7.0
249.057278 16.0
250.081773 11.0
250.970218 6.0
251.092837 8.0
252.101292 7.0
253.086807 6.0
255.083966 6.0
257.103125 7.0
258.121979 7.0
259.068754 6.0
262.084298 8.0
264.092707 19.0
265.026422 23.0
265.088642 22.0
266.059246 344.0
266.998031 13.0
267.065261 10.0
268.074775 106.0
268.99942 6.0
269.986845 6.0
274.082673 7.0
275.098847 6.0
278.081891 12.0
279.084176 7.0
280.07678 6.0
280.09647 13.0
280.1145 5.0
281.056395 71.0
281.069515 27.0
282.05907 17.0
283.052014 14.0
284.053299 6.0
286.109248 29.0
290.079816 12.0
291.085091 7.0
292.098815 28.0
293.13607 6.0
297.090788 6.0
300.127672 5.0
302.085911 6.0
303.128816 9.0
306.09004 8.0
307.086614 28.0
308.093419 457.0
309.096673 57.0
320.129824 6.0
321.136708 17.0
326.139891 9.0
327.145526 15.0
330.10941 6.0
331.115784 36.0
332.129049 57.0
334.106518 11.0
348.124052 60.0
349.130057 2142.0
350.135671 7686.0

