>compound 
>formula C15H22O3
>parentmass 251.16417556777
>ionization [M + H]+
>instrumentation Unknown (LCMS)
>source file:/Users/fanzhoukong/Documents/GitHub/Libgen/data/EAD_PFP/0_unknown_/spectrum.ms
>quality UNKNOWN

>ms2peaks
50.014407 253.0
51.024006 520.0
52.030264 123.0
53.037793 145.0
55.018591 1012.0
55.93355 39.0
56.047899 39.0
57.033478 253.0
59.050726 949.0
60.982093 39.0
62.016132 50.0
63.023851 320.0
65.035218 134.0
65.039958 1276.0
66.042397 99.0
67.055716 405.0
68.024215 22.0
68.057345 22.0
68.994783 149.0
69.035473 47.0
69.068033 59.0
71.050641 44.0
74.012237 37.0
75.014296 58.0
75.023626 70.0
76.029915 100.0
77.039474 1262.0
78.043572 266.0
79.055041 728.0
80.05111 80.0
81.069289 463.0
82.049527 23.0
83.049936 146.0
85.028304 52.0
87.023551 37.0
88.03169 28.0
89.039169 211.0
90.047727 40.0
91.056366 2034.0
92.057455 134.0
93.070634 457.0
94.065602 61.0
95.055351 83.0
95.082101 127.0
96.07909 29.0
97.061979 52.0
98.984276 113.0
101.059314 42.0
102.047493 111.0
103.045461 307.0
104.05727 39.0
105.070019 830.0
106.063448 72.0
106.071518 68.0
107.084866 418.0
108.071455 47.0
109.095314 73.0
111.000572 32.0
112.00293 18.0
113.003539 46.0
115.053836 670.0
116.061625 210.0
117.066384 312.0
117.068504 349.0
118.042483 18.0
118.068033 62.0
119.085692 505.0
120.07767 26.0
121.100709 696.0
122.084788 26.0
123.086977 56.0
123.116317 174.0
124.994094 24.0
125.059814 57.0
126.046623 55.0
127.052762 108.0
128.06179 1010.0
129.062569 154.0
129.068139 467.0
130.072818 146.0
131.078057 214.0
131.087047 432.0
132.018486 21.0
132.077035 24.0
133.070724 39.0
133.089954 121.0
133.098984 191.0
135.079592 55.0
136.10052 18.0
137.094309 18.0
139.008437 18.0
139.060407 59.0
141.068424 138.0
141.071904 312.0
142.076663 89.0
143.083812 846.0
144.081561 49.0
145.101669 1112.0
145.965568 45.0
147.079027 57.0
147.106337 137.0
147.115857 197.0
147.970216 15.0
149.021914 28.0
149.125974 87.0
149.133144 265.0
150.038933 19.0
151.058212 52.0
152.044701 22.0
152.059181 232.0
153.074399 150.0
153.098629 61.0
154.075938 117.0
155.084407 360.0
156.088826 111.0
157.101394 489.0
158.074143 49.0
158.102483 74.0
159.069662 34.0
159.091892 193.0
159.098052 402.0
159.105482 963.0
159.114142 489.0
160.099261 65.0
161.0974 183.0
162.031258 31.0
162.099848 17.0
163.001617 23.0
163.069167 58.0
163.076667 68.0
163.090417 135.0
164.061426 24.0
165.071805 128.0
166.070133 22.0
166.073923 49.0
167.074012 117.0
168.083461 70.0
169.09594 89.0
170.084608 56.0
170.106338 50.0
171.114637 198.0
171.117207 592.0
172.093786 24.0
173.101505 215.0
173.114375 990.0
174.101803 38.0
175.111482 342.0
176.057781 23.0
177.09136 510.0
178.076979 44.0
178.083509 51.0
179.029927 56.0
180.066936 27.0
180.080066 20.0
181.050225 40.0
182.110234 176.0
183.099092 32.0
183.108352 57.0
184.110571 31.0
185.13281 1068.0
186.085739 26.0
186.117809 37.0
187.104077 30.0
187.129547 177.0
187.145607 234.0
189.114065 55.0
189.127525 126.0
190.024504 92.0
191.022393 61.0
191.069782 79.0
191.104992 91.0
192.002551 18.0
192.98385 50.0
193.12131 38.0
195.103077 112.0
197.137585 155.0
198.090544 16.0
199.119043 64.0
200.116971 56.0
201.12849 80.0
202.132809 97.0
203.141028 302.0
204.080386 30.0
205.051355 64.0
205.134135 67.0
207.029823 74.0
208.033201 116.0
209.04469 58.0
209.11835 30.0
213.125145 23.0
215.142103 553.0
217.12234 37.0
218.122379 21.0
219.207368 12.0
223.061923 257.0
227.085838 43.0
231.136803 232.0
233.15776 3929.0
236.031077 37.0
242.988148 31.0
251.164378 673.0

