>compound 
>formula C11H12O3
>parentmass 215.06786524547
>ionization [M + Na]+
>instrumentation Unknown (LCMS)
>source file:/Users/fanzhoukong/Documents/GitHub/Libgen/data/EAD_PFP/0_unknown_/spectrum.ms
>quality UNKNOWN

>ms2peaks
50.017906 285.0
51.026111 599.0
52.033065 121.0
53.04201 197.0
54.040474 39.0
55.056979 445.0
55.939254 39.0
56.055073 31.0
57.073988 69.0
57.938653 12.0
58.043843 16.0
59.051217 15.0
60.999377 34.0
62.017321 55.0
63.025026 232.0
64.02831 40.0
64.03693 54.0
65.042675 1413.0
66.043519 33.0
66.046709 133.0
67.056814 464.0
68.047928 32.0
68.997483 104.0
69.071543 60.0
71.073142 17.0
72.940102 20.0
74.019126 85.0
75.015261 46.0
76.035135 115.0
77.0404 340.0
77.04384 1455.0
78.046214 692.0
79.055929 463.0
80.054613 138.0
81.071908 248.0
82.064572 35.0
83.058797 35.0
85.070656 40.0
87.027056 21.0
88.03336 20.0
89.041745 245.0
90.042859 42.0
90.049369 62.0
91.058924 2057.0
92.060008 186.0
93.068453 165.0
94.069097 52.0
95.049292 66.0
95.082722 90.0
95.088452 83.0
96.086427 31.0
97.051961 54.0
97.068361 37.0
98.105746 25.0
99.996145 35.0
102.051974 78.0
103.056899 271.0
104.053763 30.0
105.070478 87.0
105.073498 241.0
106.068942 55.0
107.075167 48.0
107.086317 82.0
108.081042 32.0
109.089576 81.0
109.104926 63.0
111.003016 32.0
111.082505 31.0
112.999725 30.0
113.019505 37.0
114.053919 14.0
115.060454 464.0
116.059808 176.0
117.062433 74.0
117.068793 184.0
118.052328 57.0
118.062968 88.0
118.941673 15.0
119.087012 71.0
120.080047 55.0
121.103081 23.0
122.087156 19.0
123.056731 22.0
123.08281 28.0
123.11325 32.0
125.03807 31.0
126.051164 38.0
126.90828 13.0
127.042949 21.0
127.055099 66.0
127.069449 64.0
128.063023 332.0
129.071578 97.0
130.071793 139.0
130.996258 61.0
131.074767 70.0
132.018552 35.0
132.070322 55.0
133.099036 18.0
133.100166 76.0
134.969186 17.0
135.081875 22.0
136.1108 11.0
137.095445 24.0
137.132134 19.0
139.054584 21.0
140.055598 46.0
141.007853 31.0
141.070673 126.0
141.999518 73.0
143.081352 42.0
143.090722 32.0
144.079087 31.0
145.086201 48.0
145.967786 38.0
146.099196 32.0
147.052721 49.0
148.116655 28.0
150.049514 43.0
151.056779 46.0
151.118189 29.0
152.066203 247.0
153.068068 108.0
154.068373 82.0
154.075663 76.0
155.076807 37.0
155.081687 60.0
156.081192 50.0
157.085126 23.0
157.104776 31.0
158.098451 44.0
159.035946 15.0
160.10635 23.0
160.1237 19.0
161.098275 33.0
162.998724 17.0
163.036254 23.0
164.062279 27.0
165.068863 189.0
166.073498 64.0
167.074832 49.0
167.083702 76.0
168.071557 42.0
168.080437 44.0
169.073801 24.0
169.100551 32.0
170.081576 21.0
170.102026 37.0
171.11412 17.0
172.094535 40.0
173.116429 27.0
173.977185 17.0
173.984955 33.0
175.155008 16.0
177.068618 14.0
178.072443 42.0
178.084213 42.0
179.089617 65.0
180.075492 42.0
180.089962 35.0
181.073306 30.0
181.090446 23.0
182.099001 25.0
182.19418 25.0
183.062626 15.0
183.106365 24.0
184.11119 19.0
185.130784 12.0
186.131779 11.0
187.116744 13.0
189.074243 40.0
190.069638 29.0
190.079088 26.0
191.004013 29.0
191.157022 15.0
192.989842 54.0
193.984567 14.0
194.096456 30.0
194.966801 25.0
195.084451 16.0
197.05833 16.0
197.129849 11.0
198.097934 13.0
202.078943 33.0
203.141467 31.0
205.158416 29.0
207.034456 136.0
208.11556 11.0
209.030905 29.0
209.090395 18.0
210.105849 14.0
215.097872 31.0
215.125172 623.0

