>compound 
>formula C15H28O3
>parentmass 274.23766576115
>ionization [M + H3N + H]+
>instrumentation Unknown (LCMS)
>source file:/Users/fanzhoukong/Documents/GitHub/Libgen/data/EAD_PFP/0_unknown_/spectrum.ms
>quality UNKNOWN

>ms2peaks
50.014698 111.0
51.023599 510.0
53.037382 317.0
54.032963 24.0
54.882384 15.0
55.056694 2523.0
55.935335 19.0
57.071547 1908.0
58.042158 27.0
59.04881 1642.0
60.981682 26.0
62.016484 34.0
63.019545 26.0
63.024995 46.0
65.034798 16.0
65.038748 1471.0
66.043569 67.0
67.0569 1749.0
69.066803 48.0
69.071683 2481.0
69.798184 7.0
71.053516 2778.0
72.057027 23.0
73.066738 658.0
74.01434 10.0
75.023201 32.0
76.035472 27.0
77.039904 2716.0
78.046605 95.0
78.798736 14.0
79.056346 2681.0
80.047168 27.0
80.806219 33.0
81.073269 2464.0
82.07128 35.0
83.075402 555.0
83.087902 1451.0
84.056883 57.0
85.065814 1361.0
87.081617 57.0
89.03966 65.0
90.039851 42.0
91.056852 3942.0
92.061714 91.0
92.763295 15.0
93.072075 2520.0
94.063256 57.0
95.087388 3711.0
96.078639 13.0
97.090491 513.0
97.102071 689.0
99.081313 824.0
101.057876 25.0
102.046057 32.0
103.050969 191.0
104.06182 76.0
105.074581 2129.0
106.069043 35.0
106.079133 29.0
107.088464 2204.0
107.961035 29.0
108.090345 25.0
108.748266 43.0
109.102017 2252.0
110.067008 19.0
111.081659 24.0
111.115739 675.0
111.70408 11.0
112.999952 13.0
113.095782 136.0
115.054425 1678.0
116.057996 70.0
116.065376 121.0
117.070157 1559.0
118.075009 105.0
119.09164 4983.0
120.093301 174.0
121.102383 2881.0
122.082144 24.0
122.115694 22.0
122.703145 12.0
123.119105 4292.0
125.085628 25.0
125.096588 605.0
127.111911 1122.0
128.064632 281.0
129.057633 15.0
129.072093 143.0
130.066755 96.0
130.076815 73.0
130.995696 43.0
131.085416 286.0
132.093417 47.0
133.106409 2365.0
134.11306 40.0
134.627461 52.0
135.123501 4239.0
136.105733 40.0
137.133964 1955.0
139.113047 291.0
141.128429 60.0
143.104392 101.0
143.107912 399.0
144.086953 39.0
145.099985 348.0
146.109486 31.0
146.630957 16.0
147.120097 4756.0
148.042419 42.0
148.122279 40.0
149.13504 1280.0
150.046831 21.0
150.108011 34.0
151.113083 746.0
151.144393 123.0
152.064714 60.0
152.536205 28.0
153.129626 1475.0
154.066917 33.0
154.076637 34.0
155.043628 21.0
155.083878 32.0
155.108298 20.0
156.087069 24.0
157.104561 95.0
157.126671 52.0
158.100712 49.0
159.116064 1223.0
160.126005 846.0
161.135406 1932.0
162.140488 29.0
163.148699 1139.0
164.07721 22.0
165.129172 620.0
166.060763 16.0
166.132743 21.0
167.074744 18.0
168.071476 31.0
169.085197 25.0
169.120877 87.0
170.101968 40.0
171.08975 31.0
172.077821 26.0
173.126722 80.0
173.130602 144.0
174.140034 118.0
175.149825 553.0
176.062426 31.0
177.162528 707.0
178.081659 18.0
178.132629 21.0
179.09491 32.0
179.14213 132.0
179.18014 49.0
180.082142 21.0
181.083943 31.0
181.161723 20.0
182.079264 33.0
183.095886 21.0
183.134316 23.0
185.129588 26.0
187.120931 29.0
187.147741 85.0
188.154172 167.0
189.086554 21.0
190.046885 19.0
191.143696 37.0
192.148598 22.0
192.979199 20.0
193.195629 294.0
195.097032 19.0
197.066864 20.0
197.114984 11.0
199.096347 15.0
200.142698 16.0
201.16263 41.0
203.171162 122.0
203.180932 3232.0
204.082594 15.0
204.103584 29.0
205.157385 83.0
206.090126 30.0
207.032038 27.0
207.099698 24.0
209.15173 12.0
212.237355 57.0
213.090216 13.0
214.083807 35.0
216.05631 13.0
218.105842 16.0
220.182505 44.0
221.193927 1067.0
224.121821 18.0
225.112842 23.0
228.239606 36.0
230.103709 8.0
232.096301 22.0
233.088323 29.0
238.216239 16.0
239.165191 23.0
239.201551 52.0
242.172725 14.0
247.115671 8.0
250.980536 15.0
256.226903 25.0
265.021225 19.0
265.038775 8.0
268.991021 8.0
274.174767 248.0

