>compound 
>formula C10H12N2O
>parentmass 177.102249145508
>ionization [M + H]+
>instrumentation Unknown (LCMS)
>source file:/Users/fanzhoukong/Documents/GitHub/Libgen/data/NIST_MONA/0_unknown_/spectrum.ms
>quality UNKNOWN

>ms2peaks
54.03342 1.602467
65.03815 10.93128
67.04129 10.45639
77.03822 33.94927
79.05418 19.97462
80.04869 3.630807
89.03871 10.94478
91.05366 10.92355
94.04076 4.201114
103.0542 16.5219
104.0532 6.949703
105.0565 7.12845
105.0697 27.52586
106.0653 2.188036
106.0727 2.188036
107.0483 3.392779
115.054 100.0
116.0577 14.45
117.0582 67.93114
118.0647 5.77528
130.0653 25.26222
131.049 7.775623
131.0729 14.11757
132.0528 2.502424
132.0805 12.20562
134.0617 1.995036
140.0505 3.34007
141.0569 4.959517
142.0658 8.948934
143.0723 15.6224
144.0528 2.19501
144.0766 1.611059
145.0539 2.361983
146.0606 1.623187
158.0604 4.464663
159.0683 25.72332
160.0777 53.19136
161.079 4.752368
177.1022 7.485846

