>compound 
>formula C18H19NO4
>parentmass 314.13868909508005
>ionization [M + H]+
>instrumentation Unknown (LCMS)
>source file:/Users/fanzhoukong/Documents/GitHub/Libgen/data/EAD_PFP/0_unknown_/spectrum.ms
>quality UNKNOWN

>ms2peaks
50.013275 409.0
51.021491 1100.0
52.027047 33.0
52.999612 39.0
53.036703 64.0
54.029418 29.0
55.017534 387.0
56.04687 14.0
59.042967 19.0
61.007159 26.0
62.014425 154.0
63.0206 1603.0
65.038282 638.0
65.443415 26.0
66.008088 12.0
66.045508 20.0
67.053254 64.0
68.989075 13.0
68.997205 28.0
72.078293 14.0
75.02289 63.0
76.027486 40.0
77.037902 10024.0
78.044608 1330.0
78.353009 17.0
79.053493 632.0
80.028529 20.0
80.051319 33.0
80.060959 32.0
81.031595 40.0
82.025821 52.0
83.035037 18.0
84.046832 18.0
88.034826 24.0
88.74677 27.0
88.76523 23.0
89.038641 11002.0
89.599695 32.0
89.842816 16.0
90.046287 157.0
91.053053 8004.0
92.016549 17.0
92.038159 36.0
92.064479 39.0
92.761363 25.0
93.072045 12357.0
94.03283 34.0
94.04138 85.0
94.056581 31.0
94.418913 14.0
95.049176 494.0
95.320608 21.0
95.454559 21.0
97.008478 16.0
97.080858 22.0
100.406087 25.0
101.030381 18.0
101.037281 197.0
102.044167 193.0
103.039153 21.0
103.054073 8158.0
104.024968 36.0
104.053949 63.0
104.422011 21.0
104.893043 14.0
105.034554 121.0
105.043594 371.0
105.063674 67.0
105.666008 20.0
106.04397 713.0
107.048086 854.0
108.043682 41.0
108.059982 82.0
108.069142 40.0
109.029577 26.0
109.057198 34.0
110.033303 28.0
110.039463 19.0
114.032466 30.0
114.040836 28.0
115.030542 18.0
115.050502 39.0
115.059962 68.0
115.874727 15.0
116.042458 23.0
116.057228 18.0
116.648982 32.0
116.653212 41.0
116.661682 24.0
117.033374 12884.0
117.535187 16.0
117.686048 22.0
118.04553 412.0
118.06043 91.0
118.330951 17.0
118.844074 19.0
118.987225 19.0
119.048146 896.0
119.443958 20.0
119.619609 16.0
120.058221 733.0
120.632105 41.0
120.656845 44.0
120.668685 104.0
120.672995 158.0
120.689135 131.0
120.835546 26.0
121.066097 21618.0
121.5106 17.0
121.741801 34.0
121.958072 155.0
122.021913 111.0
124.047355 245.0
124.218716 118.0
125.396302 604.0
126.594879 101.0
127.830176 814.0
128.031828 289.0
129.036963 23.0
131.001825 61.0
131.042175 31.0
131.048905 105.0
132.276392 19.0
133.026707 37.0
133.060607 67.0
134.030802 39.0
134.039882 1178.0
135.048898 428.0
135.813893 130.0
136.037734 82.0
136.053734 733.0
137.0554 141.0
137.06342 88.0
138.061886 86.0
138.087216 150.0
138.097576 127.0
141.074373 13.0
142.025429 32.0
142.034769 27.0
142.890664 27.0
143.046465 22.0
143.060525 24.0
143.421627 41.0
143.591818 21.0
144.02059 17.0
144.046471 202.0
144.521853 48.0
144.535983 112.0
144.548943 256.0
144.557184 207.0
144.576024 94.0
144.750425 14.0
145.031056 33993.0
145.74569 44.0
145.988232 147.0
146.005992 317.0
146.030852 256.0
146.045062 531.0
146.053342 446.0
147.045968 3222.0
147.306239 33.0
147.978773 75.0
148.058624 247.0
148.064584 294.0
149.05921 17276.0
151.074111 2837.0
151.863816 29.0
152.065477 100.0
154.135809 47.0
157.041556 20.0
157.904531 204.0
158.049832 33.0
158.059682 36.0
158.221083 125.0
158.824206 126.0
159.031687 93.0
159.044038 215.0
160.040123 56.0
160.322825 146.0
160.974679 56.0
161.044289 37.0
161.056709 86.0
162.034135 759.0
163.038281 493.0
163.643004 104.0
163.918816 113.0
164.054307 138.0
164.075617 712.0
165.070953 29.0
171.040797 21.0
172.039003 19.0
174.055785 1009.0
175.05756 71.0
175.976436 48.0
176.066106 743.0
176.438068 94.0
176.454999 115.0
176.465399 294.0
176.470609 324.0
176.491429 348.0
176.501839 116.0
176.568219 104.0
176.74139 21.0
176.856011 20.0
177.055402 41083.0
178.021318 28.0
178.050068 28.0
178.155958 67.0
178.250129 77.0
178.39664 38.0
178.638781 20.0
179.905839 18.0
182.873096 459.0
183.384799 981.0
183.60907 806.0
183.829491 1468.0
184.047383 787.0
184.137763 209.0
184.648566 205.0
185.180099 2283.0
185.414791 3435.0
186.367116 8775.0
186.788609 1757.0
187.630363 974.0
192.062979 112.0
194.081621 4222.0
197.41628 35.0
204.063019 115.0
205.077445 15.0
206.08314 24.0
211.786694 636.0
212.081915 266.0
213.480893 3753.0
218.462032 46.0
218.632933 36.0
220.082372 19.0
220.092552 136.0
221.45205 21.0
221.955293 103.0
225.641014 49.0
226.293378 1137.0
227.497485 15.0
228.032668 2323.0
229.190955 37.0
231.619209 29.0
231.79368 2784.0
233.717171 350.0
235.450131 2814.0
237.04017 143.0
237.382652 60.0
237.788844 535.0
238.018506 36.0
238.145497 33.0
240.810582 6.0
242.066369 17.0
242.2234 17.0
242.879424 136.0
243.119165 23.0
244.064081 1680.0
244.382503 29.0
246.318984 20.0
246.841997 27.0
247.487311 19.0
247.683082 112.0
249.03858 46.0
249.12206 6.0
250.346617 16.0
250.76994 17.0
251.305423 60.0
251.982977 28.0
253.513916 29.0
254.039839 17.0
254.772653 15.0
256.690154 14.0
257.253907 33.0
257.860761 17.0
258.132972 24.0
258.747176 6.0
260.431296 18.0
260.708027 20.0
263.313303 10.0
263.430953 15.0
267.002964 15.0
269.7939 32.0
272.140194 14.0
276.394008 36.0
279.199075 26.0
281.066606 20.0
282.558194 22.0
287.667754 14.0
288.73877 32.0
291.241075 21.0
291.420006 16.0
297.833153 18.0
301.989587 18.0
314.115817 82.0
314.148807 2367.0

