>compound 
>formula C19H22O5
>parentmass 331.15400480691005
>ionization [M + H]+
>instrumentation Unknown (LCMS)
>source file:/Users/fanzhoukong/Documents/GitHub/Libgen/data/EAD_PFP/0_unknown_/spectrum.ms
>quality UNKNOWN

>ms2peaks
113.04048 38.0
115.054332 2294.0
116.061073 110.0
117.069014 223.0
118.050444 61.0
119.048795 184.0
120.088916 85.0
121.065657 280.0
121.085057 152.0
122.036608 826.0
123.040769 56.0
123.082069 33.0
124.05232 41.0
125.097601 25.0
126.047161 73.0
127.055512 514.0
128.063443 390.0
129.035304 114.0
129.073134 83.0
131.049456 71.0
133.064527 45.0
137.061631 99.0
141.072514 137.0
143.049246 463.0
144.055127 243.0
145.042108 642.0
145.052728 378.0
145.068068 237.0
146.034839 96.0
146.070339 196.0
147.04401 2494.0
148.0769 59.0
148.121021 54.0
149.062001 666.0
150.055162 171.0
150.063572 141.0
151.049213 419.0
151.058843 551.0
151.078093 96.0
152.064654 1087.0
153.070175 922.0
154.078996 407.0
155.055777 498.0
155.067987 259.0
156.056437 109.0
156.064997 74.0
156.080907 108.0
157.029628 4391.0
158.045239 131.0
158.067409 323.0
158.076029 240.0
159.04559 3507.0
160.055311 1249.0
161.060752 1802.0
162.029443 84.0
163.038553 167.0
164.083434 551.0
165.091365 3420.0
166.070816 72.0
166.078396 104.0
167.054447 34.0
167.086087 165.0
168.056198 217.0
169.066039 500.0
170.05721 72.0
170.07637 107.0
171.04486 446.0
171.06408 680.0
172.049501 102.0
172.081621 132.0
172.103471 80.0
173.028742 5009.0
174.030123 341.0
174.039173 388.0
174.049503 760.0
174.071493 120.0
175.039604 3482.0
176.049405 309.0
176.993006 363.0
178.073777 94.0
179.085707 175.0
180.145218 30.0
181.068079 363.0
182.0713 137.0
183.062701 100.0
183.081271 264.0
184.052812 592.0
185.062933 776.0
186.042373 125.0
186.066443 212.0
186.071783 180.0
187.049884 2281.0
188.045335 711.0
189.059586 3175.0
191.033968 376.0
192.083399 46.0
193.05676 49.0
193.09622 39.0
194.07485 86.0
195.073741 88.0
195.081951 214.0
196.049132 41.0
197.064103 350.0
197.077843 237.0
197.098473 91.0
198.072024 271.0
199.035525 152.0
199.053485 530.0
199.061785 505.0
199.082505 124.0
200.051236 98.0
200.067866 89.0
200.084486 81.0
201.025086 1260.0
201.045926 1015.0
202.051437 150.0
202.065357 202.0
202.356488 110.0
202.376008 52.0
203.042698 13407.0
204.046189 189.0
204.163749 108.0
205.05497 39.0
205.10125 92.0
206.503771 66.0
207.103922 139.0
207.115212 145.0
208.144233 54.0
209.096483 58.0
211.081505 576.0
212.046156 88.0
212.080396 101.0
213.054467 562.0
213.063047 848.0
214.065168 107.0
215.052399 1642.0
216.07934 276.0
217.05966 10342.0
218.056651 60.0
218.149241 74.0
218.163731 51.0
218.524152 92.0
219.025502 47.0
219.035642 168.0
220.058963 34.0
221.070104 26.0
221.156034 30.0
223.077386 44.0
225.043767 70.0
225.067277 151.0
225.074637 221.0
226.063348 68.0
226.097218 36.0
227.073399 884.0
228.0724 45.0
228.10198 78.0
229.083981 6165.0
230.096312 172.0
231.043853 123.0
231.067673 542.0
231.084043 506.0
233.043454 67.0
235.165846 40.0
236.087627 38.0
237.082128 67.0
239.057669 132.0
239.072799 273.0
240.09935 55.0
241.085501 373.0
242.069092 75.0
243.102053 4325.0
244.075984 182.0
245.054905 159.0
245.064125 171.0
245.076375 273.0
246.161826 69.0
247.100286 32.0
249.089218 35.0
249.134058 49.0
249.171168 61.0
250.214509 54.0
253.087872 216.0
255.097583 244.0
256.059164 46.0
256.084244 46.0
257.083815 9230.0
258.086906 319.0
259.101397 14668.0
260.102098 169.0
261.145899 44.0
261.876179 35.0
263.08874 62.0
263.16344 47.0
264.170341 109.0
267.060114 44.0
267.151364 88.0
268.112915 32.0
269.118006 100.0
269.122806 252.0
271.099917 7912.0
273.077759 42.0
273.110139 83.0
273.116609 97.0
274.08722 37.0
275.096931 11436.0
278.227023 110.0
281.052866 45.0
282.048987 35.0
283.097938 70.0
283.134228 67.0
285.152109 247.0
287.090831 83.0
288.097582 36.0
289.112783 9318.0
295.131888 64.0
295.192498 54.0
296.137469 54.0
296.215019 28.0
297.11773 220.0
299.123742 35.0
301.037963 43.0
301.111053 76.0
303.115135 30.0
303.159485 61.0
313.145174 2198.0
315.126255 265.0
316.064276 45.0
329.147418 38.0
330.049118 67.0
330.141649 129.0
331.162349 12864.0

