>compound 
>formula C10H12N4O6
>parentmass 285.082891845703
>ionization [M + H]+
>instrumentation Unknown (LCMS)
>source file:/Users/fanzhoukong/Documents/GitHub/Libgen/data/NIST_MONA/0_unknown_/spectrum.ms
>quality UNKNOWN

>ms2peaks
29.0375 0.74
31.0135 0.52
41.0376 1.42
43.0174 8.46
45.0335 1.56
47.0132 0.5
55.0174 7.78
55.903 0.33
57.0331 17.21
57.0758 0.39
57.9334 0.84
59.0493 2.78
61.0281 1.35
69.0337 3.12
71.0123 2.41
73.0282 9.9
73.2105 0.37
85.0281 8.63
87.0432 2.5
97.0288 6.78
103.0382 2.44
110.0347 3.66
115.0401 5.07
133.0511 13.06
133.0944 0.37
133.3774 0.37
136.014 13.43
153.0039 0.73
153.0414 100.0
153.1114 2.09
153.1555 0.35
153.2364 0.4
153.4034 0.69
153.4506 0.46
154.2249 0.38
195.0381 0.69
220.9243 0.61

