>compound 
>formula C20H22O6
>parentmass 376.17545942648
>ionization [M + H3N + H]+
>instrumentation Unknown (LCMS)
>source file:/Users/fanzhoukong/Documents/GitHub/Libgen/data/EAD_PFP/0_unknown_/spectrum.ms
>quality UNKNOWN

>ms2peaks
92.170839 22.0
119.051082 70.0
121.067964 100.0
122.035675 4228.0
123.040916 168.0
126.045108 179.0
127.056759 534.0
128.0636 1335.0
129.073281 659.0
130.043382 164.0
131.052963 11975.0
132.055203 248.0
133.044324 201.0
133.064664 353.0
134.037145 132.0
135.045016 1793.0
136.048667 200.0
136.622867 145.0
137.066368 26330.0
138.067129 1402.0
138.417269 74.0
143.051733 66.0
145.064665 143.0
147.042956 91.0
149.058548 139.0
151.06017 353.0
157.061665 483.0
158.076146 142.0
159.043247 208.0
159.079077 193.0
160.055428 1778.0
161.063369 1560.0
162.069469 591.0
163.08371 9194.0
164.067241 387.0
164.086061 343.0
165.056242 7685.0
166.079773 56.0
167.073544 773.0
168.055035 48.0
170.035606 59.0
171.053947 209.0
171.060347 246.0
171.083407 200.0
172.050888 112.0
173.063639 446.0
174.0716 916.0
175.079891 8568.0
176.045602 375.0
176.052102 386.0
177.059592 5491.0
178.067333 863.0
179.072704 6343.0
180.097985 46.0
181.068186 232.0
182.187747 53.0
182.754107 73.0
183.068118 47.0
185.063019 194.0
186.07054 96.0
187.078131 1895.0
188.054832 128.0
188.077672 146.0
189.089313 3071.0
190.064504 134.0
190.071244 200.0
191.073335 3093.0
193.074526 232.0
193.088146 129.0
194.059947 663.0
195.086148 83.0
197.06282 39.0
199.081202 405.0
200.065182 72.0
201.087673 558.0
202.079374 1756.0
203.086065 3699.0
204.084066 95.0
205.085907 1236.0
205.088707 3160.0
206.077548 157.0
206.090198 53.0
207.061709 111.0
207.096939 191.0
208.075059 281.0
209.11072 53.0
211.075892 131.0
213.074564 73.0
215.075455 125.0
215.084075 183.0
217.085707 1722.0
218.075548 189.0
219.079209 454.0
220.07211 458.0
221.094931 2641.0
222.120122 80.0
223.097952 4639.0
224.085243 219.0
225.052644 81.0
225.092334 68.0
229.081068 81.0
230.071099 60.0
231.085599 4713.0
232.09039 685.0
233.089881 105.0
233.094371 263.0
234.088532 264.0
235.105813 2437.0
236.087694 63.0
237.097255 113.0
239.065296 60.0
239.107696 54.0
241.071858 56.0
242.076769 66.0
243.08378 103.0
245.099452 749.0
246.098872 55.0
247.074153 374.0
247.084943 354.0
248.086844 834.0
249.098535 1504.0
250.107636 102.0
251.083047 58.0
253.105058 74.0
253.120649 91.0
255.11482 61.0
258.063323 64.0
259.079384 5068.0
260.087925 1061.0
261.093665 326.0
262.106146 318.0
263.112617 9536.0
264.114658 126.0
265.088269 98.0
266.09886 150.0
267.108161 84.0
271.114454 65.0
273.090746 857.0
274.098617 225.0
274.101857 423.0
276.084098 829.0
277.100729 795.0
277.125169 595.0
279.105211 189.0
281.121853 3108.0
285.105796 88.0
289.0961 160.0
290.101351 613.0
291.106691 12828.0
292.112062 534.0
293.082273 170.0
293.119203 70.0
294.559974 73.0
295.140325 4547.0
297.116037 97.0
305.119034 8412.0
307.103775 71.0
308.102006 112.0
308.108876 1022.0
309.120807 3000.0
310.122298 76.0
311.127129 234.0
313.150381 591.0
321.120998 188.0
323.135919 14175.0
339.126633 108.0
341.148325 17262.0
358.13483 45.0
358.1478 168.0
359.149631 1421.0
376.187365 62.0

