>compound 
>formula C9H15N3O2S
>parentmass 230.095779418945
>ionization [M + H]+
>instrumentation Unknown (LCMS)
>source file:/Users/fanzhoukong/Documents/GitHub/Libgen/data/NIST_MONA/0_unknown_/spectrum.ms
>quality UNKNOWN

>ms2peaks
41.03825 11.655345
42.03327 6.903338
43.04247 2.147817
45.05737 1.264692
54.03388 1.510701
56.0505 3.972808
58.06458 2.527877
58.99472 4.773596
59.99109 3.268417
60.08208 46.187098
67.04364 19.162161
68.05138 50.775433
69.05803 64.886861
82.05183 1.009143
83.06236 5.747594
85.01279 1.412297
86.0061 6.599089
93.04415 5.962978
94.05304 9.737974
95.06063 2.170912
100.0236 32.063621
114.0231 1.380166
115.0359 2.448049
125.0199 1.026715
127.0362 100.0
129.0137 1.384684
136.0874 1.104534
143.0276 6.338018

