>compound 
>formula C11H18O5
>parentmass 253.10464467799
>ionization [M + Na]+
>instrumentation Unknown (LCMS)
>source file:/Users/fanzhoukong/Documents/GitHub/Libgen/data/EAD_PFP/0_unknown_/spectrum.ms
>quality UNKNOWN

>ms2peaks
50.016515 169.0
51.024032 410.0
52.03028 65.0
53.039217 117.0
55.053452 375.0
57.071177 85.0
59.046891 90.0
59.930139 7.0
60.988896 70.0
62.014494 33.0
63.024521 124.0
65.040616 1129.0
66.045443 101.0
67.05556 826.0
69.072745 218.0
70.076973 23.0
71.04962 64.0
74.013702 55.0
75.02255 91.0
76.032237 40.0
77.040084 882.0
78.045042 194.0
79.054769 688.0
80.056086 69.0
81.068114 381.0
83.050519 43.0
83.082668 60.0
85.063203 49.0
89.037873 64.0
90.04363 42.0
91.055038 1141.0
92.057055 134.0
93.071162 412.0
94.06423 39.0
95.084537 325.0
97.066352 138.0
99.075447 39.0
100.114664 21.0
102.046009 33.0
103.053906 175.0
105.069491 621.0
106.068958 51.0
107.085336 645.0
109.09679 105.0
110.068948 7.0
111.078445 115.0
112.023073 25.0
113.05814 44.0
115.055315 541.0
116.059942 78.0
117.05833 50.0
117.069979 254.0
118.078017 33.0
119.087174 855.0
120.082362 50.0
121.086009 65.0
121.104339 495.0
123.105834 90.0
123.116704 114.0
125.096348 56.0
126.046986 35.0
127.055333 157.0
128.059941 190.0
129.070718 307.0
130.060895 82.0
130.074285 86.0
131.077273 195.0
131.086253 322.0
132.02897 27.0
133.099318 282.0
134.069645 29.0
135.115212 634.0
137.098057 186.0
138.128884 20.0
139.074572 47.0
140.057109 21.0
141.068727 117.0
142.069944 45.0
143.080571 91.0
144.090079 87.0
145.100766 116.0
146.107893 36.0
147.120881 434.0
148.115888 37.0
149.101106 232.0
150.046393 36.0
151.062061 29.0
151.09699 85.0
152.063048 175.0
153.072195 117.0
154.070073 85.0
155.05901 15.0
155.07609 135.0
156.086597 131.0
156.093937 131.0
157.102825 420.0
158.103892 61.0
159.115569 415.0
160.093257 27.0
160.109387 64.0
160.125477 32.0
161.096334 450.0
162.996799 46.0
163.110629 34.0
164.054056 56.0
165.070724 151.0
165.082044 114.0
166.067771 38.0
166.081661 42.0
167.070359 95.0
167.100759 76.0
168.070906 48.0
168.082336 59.0
169.097353 53.0
170.100091 59.0
171.118598 121.0
173.111923 22.0
173.113213 46.0
173.132543 230.0
174.1433 126.0
175.142717 515.0
175.146587 1442.0
176.142395 41.0
177.125362 91.0
178.07838 56.0
179.073277 42.0
179.089007 133.0
179.109987 53.0
180.086735 62.0
181.067442 33.0
181.083252 39.0
182.083859 25.0
183.069997 21.0
183.089887 25.0
184.125254 115.0
185.131531 17.0
187.059906 59.0
187.110826 28.0
188.060744 18.0
189.162601 481.0
191.000746 89.0
191.076576 60.0
192.075863 27.0
192.103023 21.0
193.053271 425.0
193.09547 158.0
195.111285 41.0
196.090883 22.0
197.12657 30.0
199.148065 280.0
200.111402 20.0
202.077057 29.0
202.132767 24.0
203.068394 21.0
203.143774 16.0
204.074742 37.0
205.097589 31.0
206.080816 35.0
207.055124 165.0
208.031731 32.0
209.034699 39.0
210.990944 24.0
211.127593 43.0
212.123711 27.0
215.090253 33.0
217.162637 398.0
219.091222 16.0
219.120232 15.0
220.09868 25.0
220.11904 100.0
221.076397 41.0
223.110042 27.0
228.025499 19.0
230.095234 25.0
232.110158 16.0
235.064111 222.0
235.106161 116.0
235.17075 47.0
241.084355 36.0
242.98482 27.0
248.998344 23.0
251.081789 28.0
253.111563 5778.0

