>compound 
>formula C12H14O4
>parentmass 245.0784299295
>ionization [M + Na]+
>instrumentation Unknown (LCMS)
>source file:/Users/fanzhoukong/Documents/GitHub/Libgen/data/EAD_PFP/0_unknown_/spectrum.ms
>quality UNKNOWN

>ms2peaks
50.014767 155.0
51.020906 322.0
52.027865 63.0
53.036824 103.0
54.038904 26.0
55.053273 152.0
56.96085 46.0
57.067371 39.0
59.04687 38.0
60.981287 37.0
60.994287 33.0
62.012247 54.0
63.021526 191.0
64.027965 23.0
65.037645 649.0
66.039294 83.0
67.051803 213.0
68.034042 21.0
68.994931 139.0
71.04506 28.0
74.015037 38.0
75.007796 53.0
75.019676 30.0
76.027665 86.0
77.037225 1248.0
78.039594 115.0
79.051063 320.0
80.052382 85.0
81.068832 193.0
82.065061 28.0
83.04594 23.0
83.08166 22.0
84.957467 27.0
85.038748 64.0
87.029587 36.0
89.036995 287.0
90.044634 39.0
91.054193 1819.0
92.056233 194.0
93.062812 100.0
93.068482 139.0
94.053001 57.0
94.074851 27.0
95.07518 46.0
95.08664 99.0
95.951208 18.0
97.096529 18.0
99.022117 29.0
99.991516 42.0
100.032666 20.0
101.038495 31.0
102.042424 51.0
102.044404 97.0
103.051324 165.0
104.048183 33.0
105.067932 186.0
106.067421 50.0
107.06758 52.0
108.07346 30.0
109.067669 24.0
110.996457 25.0
111.040847 46.0
112.998375 69.0
115.051804 610.0
116.053273 57.0
117.061182 155.0
118.061751 42.0
119.059101 19.0
119.083681 73.0
120.07781 33.0
121.065289 23.0
121.092239 49.0
121.098709 126.0
122.099028 14.0
123.078467 23.0
123.101288 25.0
125.055646 43.0
125.093996 28.0
126.050145 41.0
127.051894 97.0
128.059823 502.0
129.069512 124.0
130.060832 55.0
130.068642 41.0
131.046951 121.0
131.061521 147.0
132.06719 20.0
133.100449 62.0
134.095729 20.0
135.097018 25.0
139.051574 46.0
140.059563 28.0
141.068853 81.0
142.071272 40.0
143.063171 54.0
143.081911 51.0
144.06441 29.0
144.09027 20.0
145.076199 66.0
145.09863 59.0
145.969608 34.0
146.097479 12.0
147.113998 41.0
149.082256 21.0
149.101396 33.0
149.128907 26.0
150.044285 20.0
151.052754 44.0
151.074414 52.0
152.060974 140.0
153.062853 47.0
153.070133 101.0
153.091943 69.0
154.059512 61.0
155.061851 60.0
155.075261 44.0
155.082591 93.0
156.08089 40.0
156.096801 25.0
157.07258 45.0
157.10083 55.0
158.073569 31.0
158.094499 41.0
159.043138 60.0
159.065378 35.0
159.119738 25.0
161.063266 37.0
161.094366 17.0
162.046945 19.0
163.052354 16.0
163.073625 24.0
163.148705 20.0
164.055874 42.0
165.051153 30.0
165.068783 206.0
166.067112 52.0
167.073531 69.0
167.092512 72.0
168.079171 45.0
169.08398 27.0
170.081599 23.0
171.084708 20.0
171.112888 85.0
173.057226 36.0
173.103627 29.0
175.042355 21.0
175.098095 23.0
176.057364 32.0
177.067483 53.0
178.076572 86.0
179.067551 102.0
180.079671 26.0
180.982619 13.0
181.07884 48.0
182.078139 22.0
183.078848 32.0
183.108009 44.0
184.167378 74.0
185.132467 115.0
187.039445 255.0
189.058513 29.0
190.063352 26.0
190.999091 58.0
191.076262 41.0
192.079651 29.0
192.980859 35.0
194.073819 37.0
195.093259 43.0
196.115348 16.0
199.077365 20.0
199.132656 38.0
199.146466 54.0
200.046094 24.0
201.092164 35.0
202.072733 24.0
203.065452 23.0
203.100352 28.0
204.078801 26.0
205.09046 14.0
207.032478 64.0
208.025987 15.0
209.087037 28.0
209.112537 25.0
211.127556 25.0
213.054964 16.0
215.031362 35.0
215.080222 14.0
217.097731 17.0
217.122271 33.0
225.042914 28.0
227.060742 20.0
227.177383 333.0
229.04904 72.0
230.05535 67.0
233.081537 13.0
242.983698 21.0
244.072158 28.0
245.086378 1755.0

