>compound 
>formula C15H14O4
>parentmass 259.0964899295
>ionization [M + H]+
>instrumentation Unknown (LCMS)
>source file:/Users/fanzhoukong/Documents/GitHub/Libgen/data/EAD_PFP/0_unknown_/spectrum.ms
>quality UNKNOWN

>ms2peaks
50.014009 206.0
51.022909 793.0
52.02917 94.0
53.036701 157.0
55.017492 1154.0
57.032383 36.0
57.934054 9.0
60.987886 33.0
61.004716 13.0
62.014257 118.0
63.021977 344.0
64.029978 40.0
65.038069 1781.0
66.045279 150.0
67.05221 283.0
68.023921 9.0
68.997751 1012.0
71.012383 398.0
72.027243 14.0
72.936324 13.0
74.013665 92.0
75.024215 49.0
76.028816 155.0
77.040947 2147.0
78.045927 421.0
79.053928 734.0
80.051749 21.0
81.033779 84.0
81.042599 60.0
81.050539 59.0
81.069059 14.0
82.04043 32.0
83.011341 8.0
83.050621 31.0
84.031061 10.0
85.029902 173.0
86.014653 21.0
87.022443 32.0
88.030584 33.0
89.038985 527.0
90.045685 42.0
91.054316 1532.0
92.049757 19.0
92.058217 95.0
93.037387 9.0
93.045887 46.0
93.056287 42.0
93.068567 105.0
94.042638 101.0
95.048509 668.0
95.952229 10.0
97.02902 54.0
97.06472 17.0
98.015781 15.0
99.043591 92.0
101.032593 32.0
101.044403 23.0
102.046373 276.0
103.054284 477.0
104.059155 41.0
105.044795 76.0
105.052825 36.0
105.069895 13.0
106.042146 57.0
106.704946 16.0
107.052317 2999.0
108.056077 19.0
109.030758 26.0
109.064518 31.0
110.036539 203.0
111.042799 473.0
111.054159 17.0
113.0347 34.0
114.048271 81.0
115.055862 3516.0
116.061553 195.0
117.050423 23.0
117.071623 232.0
118.042414 37.0
118.055194 31.0
119.050354 62.0
119.061044 36.0
119.068534 29.0
119.086705 15.0
121.065086 3273.0
122.033866 42.0
122.037116 93.0
123.043457 1762.0
124.051748 272.0
125.046628 25.0
125.058678 301.0
126.045479 335.0
127.05604 1195.0
128.06397 3079.0
129.071451 994.0
130.035942 14.0
130.059402 28.0
130.073942 18.0
131.048882 621.0
131.061232 231.0
131.070182 217.0
132.050003 28.0
133.030054 384.0
134.037554 410.0
135.047715 2994.0
136.053666 117.0
137.062206 978.0
139.054648 779.0
140.062628 110.0
141.071929 1231.0
142.08019 76.0
143.06626 132.0
143.08617 464.0
144.058081 322.0
145.063952 458.0
146.033072 9.0
146.070962 18.0
147.042223 191.0
148.051304 29.0
149.061424 3608.0
150.064185 1388.0
151.054656 2072.0
151.558346 32.0
151.572806 10.0
152.062876 3786.0
153.070807 4238.0
154.068688 43.0
154.075998 106.0
155.049098 504.0
156.054619 132.0
157.06711 4184.0
158.05081 11.0
158.07298 100.0
159.045011 36.0
159.058611 140.0
159.067241 68.0
159.078371 339.0
160.054732 709.0
161.058932 450.0
162.047583 20.0
162.068773 28.0
163.066764 254.0
163.080504 47.0
164.061524 89.0
165.070655 1067.0
166.076556 90.0
167.065246 25.0
167.085516 460.0
168.056887 709.0
169.064198 3056.0
170.073238 654.0
171.082729 4185.0
172.05405 278.0
173.05907 965.0
174.068321 383.0
175.074012 1198.0
176.061812 55.0
177.054993 72.0
177.061523 145.0
178.078414 32.0
179.060204 136.0
180.057855 293.0
180.469545 14.0
181.068836 5337.0
182.074686 606.0
183.044887 81.0
183.079357 127.0
184.053578 597.0
185.065008 572.0
185.086338 57.0
186.039129 40.0
186.053839 26.0
186.065839 121.0
187.0761 1044.0
188.07296 18.0
188.08506 61.0
189.068421 29.0
189.091331 203.0
190.066522 9.0
191.038812 16.0
191.055062 16.0
191.069962 15.0
191.090272 26.0
191.102472 36.0
192.051593 12.0
192.076043 10.0
193.064334 83.0
194.074274 51.0
195.080005 1036.0
196.054035 81.0
197.059376 2948.0
198.071417 1771.0
199.079157 6312.0
200.046508 121.0
201.057839 364.0
202.085659 35.0
202.094019 45.0
203.06585 7.0
203.10214 24.0
204.081981 9.0
205.065601 16.0
207.032853 26.0
208.053213 100.0
209.063324 2960.0
210.043235 14.0
210.064535 418.0
211.075225 265.0
212.082656 120.0
213.092487 2011.0
214.064577 141.0
215.070488 462.0
216.078759 99.0
217.072059 37.0
217.086489 123.0
221.057852 46.0
222.068373 16.0
223.075333 276.0
224.046464 10.0
224.084574 21.0
225.056405 638.0
226.062755 1910.0
227.071346 3997.0
228.079227 612.0
229.047807 33.0
229.064117 57.0
229.081907 97.0
230.092748 36.0
231.098349 102.0
239.072214 86.0
240.079015 91.0
241.087955 1058.0
242.056326 158.0
242.083746 27.0
243.066337 306.0
244.072317 447.0
249.986171 10.0
256.074265 30.0
257.083236 553.0
258.089467 250.0
259.099237 2127.0

