>compound 
>formula C15H20O3
>parentmass 249.14852550331003
>ionization [M + H]+
>instrumentation Unknown (LCMS)
>source file:/Users/fanzhoukong/Documents/GitHub/Libgen/data/EAD_PFP/0_unknown_/spectrum.ms
>quality UNKNOWN

>ms2peaks
91.049616 22.0
103.060224 126.0
104.064115 79.0
105.068865 150.0
106.070366 33.0
115.056882 7092.0
116.063633 1701.0
117.070523 8871.0
118.080704 157.0
118.697854 49.0
119.087735 16968.0
120.093675 82.0
121.067196 88.0
121.100616 2328.0
123.040157 173.0
123.110797 369.0
123.118407 386.0
125.021398 46.0
126.046549 127.0
127.0549 577.0
128.06172 2924.0
129.068061 1240.0
130.078362 71.0
131.086972 322.0
132.386743 76.0
133.097824 152.0
135.117125 161.0
139.040738 36.0
141.071889 1414.0
142.07898 2347.0
143.08847 12134.0
144.095661 1969.0
145.098122 9520.0
145.107562 12379.0
146.074472 300.0
146.092232 602.0
146.106432 445.0
147.090883 4300.0
147.096843 26724.0
148.087014 150.0
148.122784 60.0
148.506934 54.0
149.062564 8239.0
150.065335 48.0
150.100155 72.0
151.075086 3707.0
152.059196 594.0
153.051367 2747.0
153.061057 12916.0
154.078378 1059.0
155.085648 12343.0
156.094969 13910.0
156.608209 168.0
157.10264 15123.0
157.79716 98.0
158.11111 4633.0
158.605471 116.0
159.117861 20920.0
160.103012 872.0
160.125332 790.0
161.107372 29894.0
161.137212 2399.0
161.867993 75.0
162.067473 144.0
162.107373 142.0
163.076704 7173.0
164.067754 84.0
165.085695 1950.0
165.090735 3669.0
166.075226 85.0
167.093056 706.0
168.074617 145.0
169.101078 1489.0
170.107668 13588.0
171.118539 13182.0
172.12469 3263.0
173.12219 13036.0
173.1312 10246.0
174.103171 2390.0
174.546811 289.0
174.612821 62.0
175.125822 31230.0
176.092952 149.0
176.150152 137.0
176.425902 70.0
177.124033 1574.0
178.078364 75.0
179.074584 563.0
179.086374 597.0
180.094615 570.0
181.084576 271.0
183.101817 774.0
183.115077 293.0
184.089388 381.0
184.530928 74.0
185.138248 25916.0
186.105879 197.0
186.145979 234.0
186.663579 109.0
187.14572 14582.0
188.11589 560.0
188.49633 86.0
188.644311 168.0
189.123601 20637.0
190.134012 109.0
190.269112 66.0
191.147082 6704.0
192.168313 24.0
193.084674 623.0
193.095574 412.0
193.166374 240.0
195.105935 54.0
195.118245 1046.0
196.092386 66.0
197.092326 129.0
198.101707 1405.0
201.134179 1867.0
202.092559 147.0
202.13713 197.0
202.48967 141.0
203.14955 13844.0
204.149111 96.0
204.366121 40.0
205.159532 5842.0
206.134472 81.0
207.104673 1344.0
211.113585 71.0
211.823036 74.0
213.133897 9117.0
214.137627 91.0
215.103478 54.0
215.119268 135.0
216.108919 69.0
216.119009 111.0
217.55576 84.0
218.13413 65.0
219.142301 836.0
220.104811 38.0
220.142601 85.0
221.155392 10623.0
229.138187 68.0
231.136999 14565.0
232.267309 121.0
232.65415 34.0
233.12805 30.0
241.125905 29.0
245.336508 23.0
248.14016 34.0
248.32382 52.0
249.153491 11740.0

