>compound 
>formula C18H14O8
>parentmass 359.07614840778
>ionization [M + H]+
>instrumentation Unknown (LCMS)
>source file:/Users/fanzhoukong/Documents/GitHub/Libgen/data/EAD_PFP/0_unknown_/spectrum.ms
>quality UNKNOWN

>ms2peaks
50.014122 251.0
51.023022 935.0
52.031393 108.0
53.037504 123.0
54.035964 16.0
55.018295 7.0
55.054635 62.0
55.934725 14.0
56.049075 17.0
57.040586 8.0
57.068706 17.0
58.065417 10.0
60.984098 43.0
61.007048 17.0
62.014289 76.0
63.022769 616.0
64.03077 35.0
65.038861 994.0
66.046071 96.0
67.054602 247.0
68.022292 9.0
68.054612 24.0
68.996103 123.0
70.064534 8.0
71.047844 15.0
74.014456 64.0
75.021607 90.0
76.030447 136.0
77.038288 1422.0
78.045838 386.0
79.052099 383.0
80.050779 31.0
81.03633 34.0
81.06014 18.0
81.07072 40.0
82.066061 14.0
83.061211 14.0
86.014523 20.0
87.021394 12.0
88.033194 41.0
89.040675 1239.0
90.044605 54.0
91.055086 928.0
92.058046 132.0
93.033427 30.0
93.062727 28.0
94.042448 72.0
95.049278 38.0
95.082708 16.0
95.952029 7.0
96.080659 7.0
97.064519 18.0
98.01557 10.0
99.043381 11.0
99.992301 13.0
101.038272 55.0
102.047132 243.0
103.052063 475.0
104.047924 14.0
105.034504 401.0
105.050574 116.0
106.040885 62.0
107.051045 355.0
108.058866 12.0
109.027426 11.0
109.102106 13.0
110.034207 11.0
111.000208 9.0
111.042528 20.0
113.001089 38.0
113.039619 26.0
114.047979 18.0
115.05661 617.0
116.028531 9.0
116.059131 38.0
117.035271 885.0
117.053291 8.0
118.041032 37.0
118.064452 23.0
119.047892 31.0
119.055382 56.0
119.082102 21.0
121.027023 70.0
121.101393 14.0
122.034604 38.0
123.043115 606.0
125.036416 6.0
126.047316 48.0
127.055677 82.0
128.063608 277.0
129.034348 16.0
129.048828 22.0
129.067728 60.0
130.042269 35.0
130.066829 67.0
130.074659 38.0
131.050729 1050.0
132.05411 19.0
132.06761 26.0
132.08562 13.0
133.02739 426.0
134.037141 627.0
135.045012 625.0
136.053252 168.0
137.026233 95.0
137.038853 13.0
139.054214 98.0
140.054085 21.0
140.061035 18.0
141.070335 94.0
141.927986 10.0
142.066896 21.0
142.077416 13.0
143.058786 11.0
143.084536 16.0
144.055277 7.0
144.077617 14.0
145.030468 454.0
145.971048 17.0
146.036158 8.0
146.071658 12.0
147.045329 145.0
147.969779 16.0
149.02267 57.0
149.05139 9.0
150.0361 132.0
150.0433 134.0
151.046951 201.0
152.063582 377.0
153.072732 207.0
154.076723 48.0
155.063233 17.0
155.077863 28.0
155.086403 36.0
156.076144 11.0
156.090834 25.0
157.071485 20.0
157.088665 10.0
157.102185 19.0
158.039195 99.0
158.066295 8.0
158.521105 15.0
159.048206 1605.0
160.050476 36.0
160.113696 11.0
161.026067 509.0
162.033307 324.0
163.041188 2723.0
164.062209 132.0
165.067569 515.0
166.07851 48.0
167.07862 40.0
167.08622 57.0
168.060121 47.0
168.080451 17.0
169.063622 31.0
169.078912 28.0
169.100562 15.0
170.082872 17.0
170.096932 9.0
171.044973 12.0
171.080853 17.0
171.092383 10.0
173.023694 95.0
174.047055 13.0
174.128475 9.0
175.042305 46.0
175.056555 59.0
176.057306 23.0
176.061216 266.0
177.019186 31.0
177.047866 28.0
177.068716 17.0
178.079117 39.0
179.035987 985.0
180.045388 93.0
180.065118 11.0
180.082208 15.0
181.055009 421.0
182.075379 16.0
182.097839 13.0
183.04027 14.0
183.06811 7.0
183.1039 36.0
183.11716 13.0
184.0795 5.0
185.021711 7.0
185.093671 10.0
185.131001 13.0
186.030462 10.0
187.043272 3707.0
188.062903 8.0
189.019273 10.0
189.067763 23.0
190.076644 24.0
191.034074 530.0
192.059055 28.0
192.064485 51.0
193.067726 128.0
194.076296 40.0
194.095406 21.0
195.083407 28.0
196.051967 30.0
197.060048 138.0
198.067959 14.0
199.075679 18.0
199.110239 8.0
200.05963 8.0
201.12657 10.0
202.079351 19.0
203.035811 146.0
204.042082 31.0
204.056052 25.0
205.053633 248.0
206.087383 11.0
206.112703 8.0
207.034924 66.0
208.031244 18.0
208.051034 15.0
208.090604 13.0
209.059725 55.0
209.116375 9.0
210.069446 58.0
211.077296 35.0
212.047657 9.0
213.037367 6.0
215.081199 15.0
218.10157 6.0
219.099511 9.0
220.054661 53.0
221.059962 351.0
222.069023 57.0
223.078913 99.0
223.137423 9.0
224.047094 36.0
225.054114 273.0
226.064855 79.0
227.074926 237.0
229.081047 9.0
230.105267 8.0
231.029008 220.0
232.053068 10.0
233.059969 122.0
234.06602 6.0
236.044041 9.0
237.055011 86.0
238.065122 41.0
239.071333 197.0
240.075103 15.0
241.085524 11.0
242.056944 11.0
242.982955 11.0
246.121907 6.0
248.048268 33.0
249.055248 299.0
250.062689 112.0
251.07063 155.0
252.04327 22.0
253.053611 752.0
254.058191 23.0
255.064752 622.0
256.228523 117.0
257.132523 7.0
261.054095 58.0
263.176167 37.0
265.027668 11.0
265.043598 23.0
265.051588 89.0
266.058888 160.0
267.066519 274.0
268.07924 79.0
269.08266 65.0
271.062821 12.0
271.208001 10.0
273.183003 8.0
276.041744 18.0
277.050165 158.0
278.058765 68.0
279.067556 304.0
281.049587 116.0
281.195767 209.0
282.053918 30.0
283.060028 28.0
285.07602 11.0
286.08087 7.0
293.045384 17.0
294.055785 165.0
295.062895 649.0
296.068336 13.0
297.075477 578.0
299.059358 8.0
299.198278 423.0
304.035101 6.0
305.047131 42.0
312.067825 66.0
313.072336 209.0
314.278157 10.0
322.050311 71.0
323.058432 1260.0
327.067714 6.0
329.168695 8.0
341.059632 16.0
341.066862 81.0
358.214522 7.0
359.171883 7.0
359.212713 315.0

