>compound 
>formula C34H46O18
>parentmass 760.30223563484
>ionization [M + H3N + H]+
>instrumentation Unknown (LCMS)
>source file:/Users/fanzhoukong/Documents/GitHub/Libgen/data/EAD_PFP/0_unknown_/spectrum.ms
>quality UNKNOWN

>ms2peaks
106.624089 11.0
115.049631 32.0
117.062141 27.0
119.051492 48.0
123.045683 59.0
126.047733 228.0
127.054983 1434.0
128.057374 456.0
128.062914 1604.0
129.063704 68.0
129.069264 356.0
130.042684 305.0
130.054974 93.0
131.048924 614.0
131.085934 59.0
132.054535 234.0
133.063985 463.0
134.034185 59.0
135.037495 94.0
135.047745 111.0
136.013705 25.0
137.045036 43.0
137.061086 279.0
138.042266 94.0
139.039656 127.0
140.048736 120.0
141.064976 500.0
143.047517 127.0
144.047517 72.0
144.058097 165.0
145.063967 824.0
146.038988 37.0
147.039858 69.0
155.066169 43.0
156.05952 108.0
157.03762 48.0
159.06229 178.0
159.08207 339.0
160.05099 269.0
161.060161 2252.0
162.076221 220.0
163.050471 244.0
163.057971 427.0
163.070491 247.0
164.062751 113.0
165.061802 976.0
166.065162 294.0
167.069022 4538.0
168.078452 624.0
169.062892 217.0
170.046363 46.0
170.070643 48.0
170.089803 88.0
171.048093 167.0
171.083963 97.0
172.050163 335.0
173.064193 5952.0
174.061803 137.0
174.065703 237.0
174.360503 43.0
175.061014 640.0
175.071394 525.0
176.057854 216.0
176.068264 141.0
177.054944 573.0
177.065364 451.0
178.077054 264.0
179.074584 648.0
180.081465 4469.0
181.052945 4514.0
182.094445 592.0
183.067365 573.0
184.048186 161.0
184.060146 445.0
185.063616 192.0
186.067116 116.0
187.076036 1504.0
188.064836 113.0
188.083626 357.0
189.060267 95.0
189.065657 1334.0
190.063747 5221.0
191.072587 773.0
192.078677 939.0
193.084667 1794.0
194.097378 448.0
195.068968 359.0
195.078548 156.0
196.070408 191.0
197.066158 78.0
197.079928 58.0
198.067198 58.0
199.072159 72.0
200.042239 33.0
200.056089 83.0
201.068849 84.0
201.086919 165.0
202.067459 915.0
203.06993 1597.0
204.05809 39.0
204.07909 304.0
205.09075 7505.0
205.10196 5895.0
206.0641 80.0
206.09364 125.0
207.06233 189.0
207.06516 580.0
207.07643 559.0
207.44734 37.0
208.071461 725.0
209.080201 528.0
210.089971 1029.0
211.042381 56.0
211.077961 83.0
213.056612 121.0
213.086642 46.0
214.060152 58.0
215.074662 299.0
217.089252 6476.0
218.076193 232.0
219.091463 330.0
219.098733 822.0
220.074223 137.0
220.093113 92.0
221.081033 414.0
222.072604 67.0
223.076654 115.0
223.101534 103.0
224.063914 50.0
226.078804 154.0
226.086174 405.0
227.074145 36.0
228.093845 30.0
229.089165 177.0
231.086275 132.0
231.101175 401.0
232.073176 109.0
232.100026 34.0
233.083096 569.0
234.071216 100.0
234.084706 190.0
235.103506 6123.0
236.103437 305.0
237.097957 66.0
238.061307 71.0
239.070537 99.0
241.080168 49.0
243.099738 60.0
244.075208 33.0
245.092478 94.0
246.068839 35.0
247.096429 1872.0
248.089119 137.0
249.057509 35.0
249.076059 126.0
250.066519 70.0
251.09309 439.0
252.09999 48.0
253.08708 70.0
254.09016 45.0
255.065491 36.0
256.069351 42.0
256.078751 42.0
257.089311 36.0
258.071941 21.0
259.081681 53.0
260.076002 40.0
261.080182 28.0
261.094432 186.0
261.115002 41.0
262.075152 43.0
262.098952 52.0
263.084762 187.0
263.095872 218.0
264.080362 150.0
264.233202 45.0
265.114543 10804.0
266.142743 107.0
267.025653 129.0
267.102493 108.0
269.081803 139.0
270.193344 58.0
271.103924 212.0
273.089894 51.0
274.094495 44.0
275.073355 60.0
276.076705 83.0
277.078665 74.0
277.093335 123.0
278.092205 34.0
279.099446 230.0
281.056936 103.0
281.122636 51.0
282.051406 44.0
282.084306 61.0
285.075157 87.0
286.084977 43.0
287.080007 44.0
289.081898 90.0
290.092148 43.0
291.104118 346.0
292.096118 152.0
293.081409 75.0
293.096489 231.0
294.083489 42.0
295.087269 63.0
296.104539 67.0
297.110069 79.0
299.09405 192.0
300.07747 96.0
301.07274 47.0
301.10503 53.0
303.093771 101.0
304.071801 40.0
305.073631 32.0
305.097591 114.0
305.116421 80.0
306.092551 45.0
307.096001 310.0
308.102842 98.0
309.113002 62.0
310.086872 52.0
311.124502 54.0
312.101553 29.0
313.104393 51.0
315.092283 530.0
316.098203 77.0
318.097314 55.0
319.104484 235.0
320.085204 55.0
320.104484 52.0
321.081474 56.0
321.107814 107.0
322.091605 86.0
323.119165 178.0
323.133235 304.0
324.102505 42.0
325.112055 144.0
326.112576 33.0
327.118156 44.0
329.105586 36.0
330.112206 1701.0
331.115047 572.0
332.126527 77.0
334.091487 26.0
335.087767 54.0
335.129027 69.0
336.101718 187.0
337.104618 148.0
339.120268 524.0
340.133058 47.0
341.109379 35.0
341.138309 85.0
343.106109 63.0
343.115169 186.0
349.10748 30.0
350.125891 35.0
351.125611 843.0
352.130431 116.0
353.103551 96.0
354.114871 46.0
355.116582 100.0
356.128942 102.0
357.135322 210.0
359.118962 57.0
359.141242 50.0
365.147714 31.0
366.148014 33.0
367.115914 109.0
367.142184 61.0
368.122654 194.0
369.134555 627.0
370.145945 135.0
371.143625 184.0
371.147405 704.0
373.133555 156.0
373.146795 76.0
383.157268 1534.0
385.131048 84.0
386.135228 71.0
387.146528 418.0
388.157179 40.0
397.169991 40.0
399.144271 38.0
399.157971 64.0
400.150861 75.0
401.166581 8989.0
402.169842 53.0
402.519602 36.0
403.142892 148.0
404.154522 142.0
409.166303 40.0
411.146283 45.0
415.178484 76.0
417.160965 87.0
418.161975 760.0
419.176225 3072.0
427.170397 88.0
429.160967 90.0
431.178518 199.0
436.197099 58.0
443.17907 34.0
444.18603 222.0
457.189903 35.0
460.183834 40.0
544.187212 37.0
544.212292 59.0
563.215346 41.0
575.679648 12.0
579.187149 30.0
579.213089 44.0
580.220239 170.0
598.254053 49.0
742.267573 50.0
760.303037 426.0

