>compound 
>formula C15H12O2
>parentmass 223.07645315913
>ionization [M - H]-
>instrumentation Unknown (LCMS)
>source file:/Users/fanzhoukong/Documents/Fiehnlab/library_generator/data/UVPD/0_unknown_/spectrum.ms
>quality UNKNOWN

>ms2peaks
49.007645 12212.0
65.002916 26597.0
65.038926 138925.0
67.018425 9390.0
75.023601 11607.0
89.039202 18070.0
91.018101 88262.0
92.025751 217493.0
93.03384 2571145.0
101.039016 754299.0
103.054224 24753.0
115.054978 31021.0
117.033076 795839.0
119.048685 72960.0
121.028144 127631.0
130.041719 11840.0
132.020678 15913.0
141.069223 19150.0
143.048701 8962.0
145.02889 228718.0
146.03539 61595.0
147.044759 330765.0
163.03909 28814.0
165.069329 107003.0
167.084408 16462.0
176.060733 44333.0
177.070772 76432.0
180.05759 46578.0
193.064123 699526.0
195.066762 78387.0
195.081382 1948784.0
204.055846 194506.0
205.064116 112356.0
206.073515 57695.0
208.050354 10517.0
221.059757 226850.0
222.068856 66304.0
223.074136 487732.0

