>compound 
>formula C25H34O8
>parentmass 463.23264905238
>ionization [M + H]+
>instrumentation Unknown (LCMS)
>source file:/Users/fanzhoukong/Documents/GitHub/Libgen/data/EAD_PFP/0_unknown_/spectrum.ms
>quality UNKNOWN

>ms2peaks
126.037679 72.0
126.044279 122.0
127.055926 530.0
128.060523 1802.0
129.0702 1036.0
130.070438 121.0
131.053215 4940.0
132.056582 346.0
133.06265 559.0
133.06604 3023.0
134.073667 80.0
135.045254 166.0
135.078274 64.0
139.059054 179.0
141.072848 632.0
142.078765 169.0
143.088263 180.0
144.05781 772.0
145.064847 958.0
147.078752 358.0
157.063025 61.0
159.08416 206.0
160.090257 109.0
161.094554 501.0
162.104522 67.0
163.057569 93.0
164.062336 91.0
165.072714 779.0
166.077351 133.0
167.087588 493.0
168.066566 338.0
169.070073 772.0
170.07274 547.0
171.080918 2268.0
172.086965 154.0
173.068872 1070.0
173.077892 6848.0
174.06649 176.0
174.098809 335.0
175.111057 408.0
176.061264 189.0
177.067471 39.0
177.079191 78.0
178.077849 225.0
179.088486 292.0
180.079633 92.0
180.095403 99.0
181.069561 336.0
182.074088 98.0
183.082715 992.0
183.637204 72.0
184.088833 365.0
185.0977 1616.0
186.065227 45.0
186.097287 216.0
187.112984 5019.0
188.079032 54.0
188.100532 158.0
189.128389 3746.0
190.067217 43.0
190.083417 86.0
191.073344 106.0
191.086874 186.0
192.092991 84.0
192.983339 62.0
194.073566 133.0
195.084763 229.0
195.097073 267.0
196.08763 47.0
197.062788 1248.0
198.105175 226.0
199.088092 90.0
199.093612 859.0
199.112962 628.0
200.08454 86.0
201.104327 284.0
201.116817 365.0
201.129317 251.0
202.076544 250.0
203.079032 301.0
204.081209 51.0
204.116199 36.0
205.077426 62.0
207.070101 111.0
207.091241 162.0
208.091958 41.0
209.097905 229.0
210.102023 45.0
211.11283 1248.0
212.124617 133.0
213.117365 949.0
213.127375 4533.0
215.086859 795.0
216.083637 84.0
217.087054 127.0
218.085551 48.0
219.109559 69.0
220.099606 48.0
221.093363 135.0
221.103553 133.0
222.101021 65.0
223.075868 115.0
223.091968 182.0
223.108068 116.0
224.121765 47.0
225.120132 202.0
225.124532 409.0
226.10156 64.0
227.111717 151.0
227.114657 336.0
227.124987 209.0
228.110784 64.0
228.121144 73.0
229.125392 234.0
230.079859 34.0
231.080976 71.0
232.088734 55.0
233.080741 462.0
234.106338 75.0
235.078616 73.0
235.116166 109.0
236.086013 61.0
237.10311 707.0
237.12724 198.0
239.112045 191.0
240.103762 45.0
241.117289 110.0
241.123379 192.0
242.126877 72.0
243.108014 194.0
243.138554 117.0
244.086541 39.0
245.088489 107.0
245.113029 52.0
247.103193 86.0
249.072028 73.0
249.113758 107.0
250.098085 39.0
251.110763 135.0
253.125077 455.0
255.138052 747.0
257.113446 119.0
259.116951 97.0
260.092388 37.0
261.090246 112.0
261.113986 92.0
263.10278 69.0
265.156585 79.0
267.13668 114.0
269.106464 524.0
271.097999 53.0
271.122199 69.0
273.087194 123.0
273.104984 153.0
275.111238 61.0
275.120998 97.0
277.129723 164.0
279.140887 312.0
281.050882 94.0
282.119359 56.0
282.160529 80.0
283.173436 2005.0
285.151731 348.0
287.122006 81.0
289.12737 125.0
289.15569 120.0
291.101275 34.0
291.141405 47.0
292.150192 54.0
293.15568 411.0
294.157877 56.0
294.171307 130.0
295.175234 688.0
297.149379 97.0
299.118254 67.0
299.140284 50.0
301.071518 158.0
301.120808 184.0
303.152203 150.0
303.170973 245.0
305.152807 1014.0
306.163275 519.0
307.177162 3413.0
309.141017 48.0
310.152884 105.0
311.164691 236.0
313.125626 53.0
315.144881 75.0
316.147378 33.0
317.153205 723.0
318.165872 242.0
319.16614 2164.0
320.176757 38.0
321.183714 374.0
322.158812 44.0
323.168879 69.0
324.171676 293.0
327.141608 72.0
327.182358 70.0
329.155733 153.0
331.161778 472.0
331.172488 2163.0
333.182852 87.0
334.1581 158.0
335.163477 1016.0
336.172134 417.0
337.167921 93.0
341.162201 65.0
343.169985 90.0
344.183343 50.0
345.18911 1392.0
347.172165 419.0
348.176802 624.0
349.182869 4621.0
353.177518 81.0
355.172273 608.0
357.131948 142.0
359.158252 83.0
360.17634 117.0
361.182837 493.0
362.185154 47.0
363.194462 108.0
366.182063 166.0
369.138596 46.0
372.173167 353.0
373.186835 1914.0
375.939697 12.0
377.175324 128.0
378.188141 69.0
379.192769 590.0
390.186609 498.0
391.191546 1565.0
395.181376 39.0
407.112224 72.0
408.194131 45.0
409.206118 1310.0
427.20903 76.0
444.215024 204.0
445.223171 50.0
463.206553 231.0

