>compound 
>formula C9H12N2O5
>parentmass 251.06384249347
>ionization [M + Na]+
>instrumentation Unknown (LCMS)
>source file:/Users/fanzhoukong/Documents/GitHub/Libgen/data/EAD_PFP/0_unknown_/spectrum.ms
>quality UNKNOWN

>ms2peaks
50.01349 208.0
51.02028 554.0
52.02651 124.0
53.03615 212.0
54.041079 43.0
55.053269 511.0
56.047699 122.0
56.963019 247.0
59.049029 258.0
61.006398 64.0
62.014408 63.0
63.023678 339.0
65.038218 859.0
66.044628 145.0
67.054758 288.0
68.055577 38.0
68.995447 111.0
70.076187 14.0
73.028517 54.0
74.013797 60.0
75.020106 89.0
76.027226 65.0
77.039356 856.0
78.043456 311.0
79.052316 588.0
80.049246 120.0
81.069176 195.0
81.958935 108.0
83.084665 71.0
85.006535 23.0
86.060205 42.0
87.026205 18.0
88.027934 44.0
89.037244 205.0
90.485094 33.0
91.057224 1627.0
92.055504 322.0
93.062054 219.0
94.066484 93.0
95.051473 98.0
95.082033 78.0
96.047343 16.0
97.966413 45.0
97.996473 102.0
99.992603 29.0
102.038542 85.0
102.043492 101.0
103.054372 279.0
104.057232 75.0
105.067972 260.0
106.064422 74.0
107.083822 60.0
107.972672 55.0
109.074821 23.0
110.974751 117.0
112.006021 22.0
112.996241 55.0
114.044161 30.0
115.052781 713.0
116.06162 83.0
117.06532 190.0
118.06483 56.0
119.04828 20.0
119.08355 57.0
120.08411 35.0
121.09316 31.0
122.08154 17.0
123.089149 19.0
124.998479 15.0
126.047729 123.0
127.052769 247.0
128.060699 412.0
129.068159 190.0
130.067268 176.0
130.988368 25.0
131.052288 27.0
131.069098 107.0
132.017388 18.0
132.079298 60.0
133.015408 44.0
133.065118 22.0
133.991078 57.0
134.099968 40.0
135.013588 499.0
136.027418 22.0
136.991147 14.0
137.050777 45.0
139.053517 112.0
140.058027 24.0
141.070797 244.0
142.061527 53.0
142.068517 68.0
143.077976 90.0
144.080436 94.0
145.067516 37.0
145.088756 52.0
145.101726 29.0
145.966786 18.0
146.087546 69.0
147.074336 41.0
147.969076 27.0
150.052195 72.0
150.982425 814.0
152.061665 151.0
153.062325 80.0
155.069835 81.0
156.086445 65.0
157.099024 58.0
158.092684 66.0
159.115434 16.0
160.085694 25.0
161.090004 50.0
163.051714 29.0
164.061493 35.0
165.065583 113.0
165.069373 256.0
166.061393 15.0
166.075273 177.0
167.072833 89.0
167.077903 104.0
168.991563 133.0
169.075623 34.0
170.093643 87.0
170.914872 79.0
171.092942 27.0
172.106722 29.0
172.912172 80.0
173.092562 32.0
173.127372 18.0
174.129042 28.0
175.098602 21.0
176.061772 45.0
176.144982 33.0
176.989782 48.0
177.067992 32.0
178.075761 242.0
179.069351 37.0
179.083771 102.0
180.076221 62.0
180.988371 21.0
181.083281 36.0
182.097111 49.0
182.190981 55.0
183.036901 31.0
184.038901 20.0
185.0423 21.0
186.09119 18.0
186.12727 32.0
187.1149 21.0
188.11186 11.0
188.14411 14.0
189.06702 154.0
190.06375 24.0
190.07321 118.0
190.99814 32.0
191.0022 121.0
191.07668 44.0
191.998599 20.0
192.088199 28.0
192.978519 41.0
193.038389 70.0
194.091939 36.0
195.007419 21.0
195.112759 21.0
196.108839 43.0
197.111569 33.0
198.050679 13.0
200.063048 33.0
201.066098 49.0
202.075838 116.0
203.081118 62.0
203.141158 54.0
204.079098 47.0
205.094967 32.0
205.151087 38.0
207.031357 161.0
208.034747 37.0
209.117067 46.0
210.124067 20.0
210.976947 19.0
212.986586 30.0
215.008616 41.0
215.086196 65.0
216.088746 40.0
217.086396 28.0
218.100816 21.0
220.120765 36.0
221.086875 20.0
222.126655 13.0
223.145455 16.0
224.138725 30.0
226.042014 19.0
228.988384 38.0
228.995804 236.0
230.098554 30.0
232.100064 25.0
233.015813 43.0
235.144103 20.0
239.088743 28.0
242.103422 20.0
243.209772 26.0
247.005621 27.0
248.121561 14.0
248.989521 23.0
251.057431 20.0
251.077611 109.0
251.116421 60.0

