>compound 
>formula C15H22O4
>parentmass 267.15909018734004
>ionization [M + H]+
>instrumentation Unknown (LCMS)
>source file:/Users/fanzhoukong/Documents/GitHub/Libgen/data/EAD_PFP/0_unknown_/spectrum.ms
>quality UNKNOWN

>ms2peaks
50.013964 368.0
51.022164 1369.0
52.030535 100.0
53.038075 429.0
54.045905 17.0
55.054505 1232.0
55.933135 17.0
56.048225 23.0
56.963545 8.0
57.069325 663.0
59.043545 6.0
59.049575 74.0
60.984005 16.0
61.010775 24.0
62.014965 52.0
63.022685 371.0
64.029125 79.0
65.039585 2371.0
66.046005 104.0
67.054545 1061.0
68.047285 8.0
69.070115 2366.0
71.047815 46.0
71.085805 20.0
72.079555 7.0
74.013585 22.0
75.021595 65.0
76.029585 121.0
77.040005 2029.0
78.045845 1074.0
78.798845 10.0
79.055595 2103.0
80.036765 7.0
80.053425 16.0
80.059555 21.0
81.069855 1810.0
82.042115 14.0
83.084455 274.0
85.064145 23.0
87.020525 10.0
88.030485 23.0
89.038885 868.0
90.045595 364.0
91.056085 1910.0
92.058115 74.0
93.069416 2143.0
94.043486 18.0
94.055836 27.0
94.063436 13.0
95.086616 1219.0
96.082676 15.0
97.064616 20.0
97.086816 45.0
97.102266 85.0
97.950696 7.0
98.985006 54.0
99.040566 8.0
99.991426 7.0
101.037406 13.0
101.055126 5.0
102.046266 148.0
103.055166 2031.0
104.061036 384.0
104.735666 18.0
105.069786 3425.0
106.070276 25.0
107.085656 1415.0
108.055956 8.0
109.085886 55.0
109.099186 347.0
110.057996 8.0
111.079846 59.0
111.094306 9.0
112.998126 24.0
113.018956 6.0
114.047106 19.0
114.681966 6.0
115.055736 5179.0
116.062486 735.0
116.690216 8.0
117.070436 4999.0
118.042286 336.0
118.061446 51.0
118.072096 12.0
118.680686 11.0
119.087646 5632.0
120.058156 18.0
120.077476 31.0
120.091436 35.0
121.067106 149.0
121.075726 195.0
121.081116 246.0
121.098366 294.0
122.034816 7.0
122.106246 12.0
122.936856 6.0
123.046586 205.0
123.059626 22.0
123.073746 161.0
123.086796 68.0
123.105266 10.0
123.115056 23.0
123.946896 8.0
125.060736 111.0
127.055906 653.0
128.062736 2040.0
129.069086 1250.0
130.080476 326.0
131.075656 334.0
131.084626 3181.0
132.056596 48.0
132.074616 107.0
132.085886 49.0
133.090936 2852.0
134.105457 19.0
134.112267 26.0
135.044147 33.0
135.050967 30.0
135.063497 32.0
135.090827 67.0
137.026507 17.0
137.055187 52.0
137.094167 8.0
139.072977 127.0
140.048557 7.0
140.061317 8.0
141.069467 253.0
142.077707 212.0
143.084847 696.0
144.095537 258.0
145.105097 3651.0
146.035287 7.0
146.087367 26.0
146.109867 99.0
146.642017 6.0
147.118107 4724.0
148.088097 15.0
149.058857 209.0
149.079217 27.0
149.094767 15.0
150.043617 16.0
151.077367 195.0
152.062707 183.0
153.068217 214.0
154.079477 122.0
155.057467 36.0
155.067217 29.0
155.075767 66.0
155.083087 181.0
156.077717 20.0
156.092397 180.0
157.064477 76.0
157.079217 364.0
157.086567 946.0
157.100077 198.0
158.109767 509.0
159.118977 2254.0
160.126437 1608.0
161.062487 4692.0
162.069827 15.0
162.103517 17.0
163.076577 155.0
164.063867 16.0
165.059137 13.0
165.066687 44.0
165.074237 59.0
166.065007 12.0
166.080157 15.0
167.054937 19.0
167.080267 50.0
168.083377 19.0
168.096077 25.0
169.095857 28.0
169.100957 161.0
170.108827 131.0
171.083807 704.0
172.089847 40.0
172.109117 48.0
172.125827 75.0
173.058887 8.0
173.082087 6.0
173.093677 86.0
173.103997 109.0
173.129787 60.0
174.068137 13.0
174.088817 6.0
174.101737 46.0
174.569968 8.0
175.136058 1323.0
175.150308 4401.0
176.118808 15.0
176.150018 7.0
177.060008 9.0
177.090008 22.0
177.164318 7.0
178.076908 20.0
179.071818 24.0
179.079688 22.0
180.091848 26.0
181.064678 7.0
181.085758 27.0
182.073178 6.0
183.077828 15.0
183.117588 24.0
184.089238 12.0
185.135448 1170.0
186.099048 7.0
186.124438 14.0
186.492168 10.0
186.533638 11.0
187.109398 9.0
187.136188 10451.0
188.119778 1329.0
189.092478 1165.0
189.130198 6.0
190.094668 8.0
191.002048 13.0
191.095478 10.0
191.107678 11.0
191.145588 13.0
192.077168 10.0
193.085898 11.0
193.102238 11.0
193.119928 10.0
193.155328 8.0
195.116738 39.0
197.094928 21.0
198.104298 20.0
199.099678 7.0
201.096518 23.0
201.122898 21.0
201.129858 34.0
202.097988 23.0
202.468588 24.0
203.135428 29.0
203.147998 8962.0
204.147548 19.0
204.179738 10.0
204.206338 7.0
205.087818 7.0
205.121478 66.0
205.157968 9.0
206.308758 6.0
207.104518 10.0
207.135538 15.0
213.129428 178.0
213.160908 6.0
215.104749 38.0
216.111639 7.0
219.134869 12.0
221.156689 33.0
221.178539 24.0
221.191639 41.0
222.149899 12.0
222.160119 121.0
227.028279 6.0
229.118719 8.0
230.134099 6.0
231.139789 2778.0
233.118909 76.0
242.983609 6.0
248.139959 18.0
249.148659 10.0
249.161039 14.0
249.185779 52.0
250.970409 8.0
265.01721 6.0
265.36178 6.0
267.12646 9.0
267.14889 26.0
267.1585 41.0
267.17611 25.0
267.21935 6.0

