>compound 
>formula C52H82O21
>parentmass 1065.5240806538295
>ionization [M + Na]+
>instrumentation Unknown (LCMS)
>source file:/Users/fanzhoukong/Documents/GitHub/Libgen/data/EAD_PFP/0_unknown_/spectrum.ms
>quality UNKNOWN

>ms2peaks
91.907115 11.0
126.041192 25.0
127.051732 33.0
127.053942 82.0
128.062983 127.0
130.065094 133.0
131.059084 71.0
132.077115 54.0
136.110897 38.0
139.055898 61.0
140.049979 26.0
141.065039 69.0
142.06043 29.0
143.06984 41.0
144.079331 57.0
145.089991 69.0
146.075762 14.0
147.117162 42.0
148.087153 11.0
155.183376 11.0
165.069441 99.0
166.075352 93.0
167.077962 81.0
168.070913 65.0
169.070623 52.0
170.073294 24.0
170.103944 26.0
171.112234 31.0
172.113205 33.0
175.141466 24.0
175.146646 42.0
176.063147 58.0
176.980737 26.0
178.073218 114.0
179.073358 73.0
180.074979 40.0
180.096019 59.0
181.087299 34.0
182.0919 38.0
183.03433 35.0
184.113401 29.0
185.042371 65.0
186.131362 25.0
187.056022 39.0
188.050133 41.0
189.069793 136.0
190.998214 42.0
191.074034 68.0
191.997295 25.0
192.981325 57.0
194.097476 44.0
195.101916 27.0
199.069488 21.0
202.07592 104.0
203.05468 76.0
204.079181 57.0
205.073991 36.0
206.074052 24.0
207.032842 124.0
208.029163 30.0
210.125554 12.0
214.065986 23.0
217.096587 42.0
218.082088 36.0
219.113328 18.0
220.104859 11.0
222.10193 37.0
226.042102 46.0
226.078922 12.0
229.072973 31.0
231.095324 33.0
233.102645 20.0
235.216296 11.0
238.118857 22.0
240.078968 18.0
242.98075 22.0
248.986523 31.0
250.970604 16.0
251.006294 16.0
254.093415 13.0
256.089856 13.0
258.135027 22.0
265.018971 21.0
266.992182 40.0
268.974293 12.0
273.138605 12.0
278.203457 32.0
279.212518 12.0
281.052149 67.0
282.051569 39.0
288.168362 12.0
295.126106 12.0
301.081399 16.0
301.091589 68.0
324.21202 37.0
329.210623 46.0
333.075375 34.0
417.151186 44.0
421.134248 61.0
423.320319 51.0
435.140235 28.0
435.150435 46.0
463.145629 49.0
475.278905 12.0
480.143497 12.0
505.31801 12.0
516.352925 19.0
517.379656 12.0
525.28201 22.0
559.328287 11.0
593.345393 34.0
596.365415 19.0
607.36036 41.0
607.37006 40.0
608.367561 75.0
619.225846 12.0
623.305978 12.0
623.354868 74.0
652.344513 20.0
653.365753 63.0
670.308632 29.0
671.305762 81.0
671.318462 122.0
679.414166 27.0
684.328168 47.0
691.370412 12.0
695.430654 12.0
707.37792 24.0
711.409052 12.0
717.195255 12.0
721.401547 25.0
723.386838 40.0
723.410528 161.0
724.409488 38.0
739.396376 17.0
740.408946 27.0
741.419567 40.0
751.343282 12.0
755.400714 26.0
769.409261 38.0
797.389074 13.0
799.415265 13.0
814.442003 25.0
829.4309 13.0
843.440857 68.0
856.452584 35.0
857.456304 139.0
858.472055 415.0
885.463338 95.0
887.443749 40.0
901.445036 61.0
902.457126 62.0
903.463837 174.0
916.460243 13.0
919.463905 24.0
929.44487 12.0
930.45164 27.0
931.455911 236.0
945.476548 48.0
947.465629 95.0
959.453185 34.0
959.471375 20.0
1004.865807 13.0
1006.499838 58.0
1020.527675 13.0
1033.512121 70.0
1034.510772 26.0
1037.209633 13.0
1047.517008 43.0
1049.480509 23.0
1062.497366 20.0
1063.503346 259.0
1064.509937 257.0
1065.526537 3333.0

