>compound 
>formula C15H18O4
>parentmass 263.12779005842003
>ionization [M + H]+
>instrumentation Unknown (LCMS)
>source file:/Users/fanzhoukong/Documents/GitHub/Libgen/data/EAD_PFP/0_unknown_/spectrum.ms
>quality UNKNOWN

>ms2peaks
50.013977 103.0
51.022889 412.0
52.02844 63.0
53.038812 129.0
55.053805 301.0
56.960618 39.0
56.962098 47.0
58.06459 25.0
59.048091 18.0
60.981744 38.0
60.990924 37.0
62.013466 47.0
63.021167 190.0
64.026809 44.0
65.038041 929.0
66.040472 86.0
67.052984 324.0
68.053795 18.0
68.996097 122.0
70.95624 16.0
74.013645 38.0
75.021656 54.0
76.028788 83.0
77.036629 949.0
78.041571 177.0
79.054782 300.0
80.049974 60.0
81.052285 40.0
81.070805 127.0
82.063487 13.0
83.047919 105.0
84.959441 16.0
86.015543 27.0
87.043445 13.0
89.037118 216.0
90.040089 36.0
90.045669 39.0
91.055231 1596.0
92.050682 39.0
92.055382 206.0
92.995804 18.0
93.069504 82.0
94.065416 40.0
95.065687 53.0
95.074277 67.0
95.952209 26.0
97.949822 23.0
99.013363 19.0
101.038486 23.0
102.045378 73.0
103.05129 120.0
104.046151 16.0
104.061141 21.0
105.067873 153.0
106.063324 84.0
107.075626 60.0
108.081527 32.0
110.999442 13.0
111.075832 23.0
112.994075 41.0
114.052457 28.0
115.055858 428.0
116.05732 106.0
117.065251 122.0
117.073731 92.0
118.064763 57.0
119.080284 43.0
120.081896 26.0
121.027347 30.0
121.103877 17.0
123.074971 23.0
124.989673 35.0
126.042185 30.0
126.046575 56.0
127.054937 102.0
128.060648 274.0
129.05587 19.0
129.06366 87.0
130.061641 87.0
130.995053 57.0
131.073543 44.0
132.075884 38.0
133.098986 38.0
134.065908 16.0
135.085269 14.0
136.101661 17.0
138.010024 13.0
139.006135 91.0
140.037127 15.0
141.066118 60.0
142.06384 46.0
142.08019 40.0
143.066261 46.0
143.088522 18.0
144.080423 51.0
145.069865 33.0
145.085195 44.0
145.967966 27.0
147.095698 24.0
147.970269 26.0
148.990871 16.0
149.094921 21.0
150.064192 25.0
151.055864 64.0
152.059255 77.0
153.070817 153.0
154.063849 65.0
155.08326 163.0
156.086462 83.0
157.103933 38.0
158.072995 47.0
158.095165 28.0
159.094446 31.0
159.117936 23.0
161.097489 29.0
162.995452 23.0
163.054252 56.0
163.111803 17.0
164.056504 33.0
165.069406 132.0
166.060157 26.0
166.067727 31.0
167.075399 67.0
167.086799 42.0
168.09501 63.0
168.10644 41.0
169.083322 59.0
170.075803 52.0
170.091143 30.0
171.112195 35.0
172.108046 28.0
173.087448 19.0
173.099048 33.0
174.111 25.0
175.150521 18.0
176.061833 59.0
177.073264 25.0
178.074516 49.0
179.027467 21.0
179.069407 23.0
179.083847 40.0
180.078919 35.0
181.09653 35.0
182.090582 36.0
182.187072 24.0
183.064793 19.0
183.084693 35.0
184.085485 92.0
185.122337 30.0
187.07344 16.0
188.050151 28.0
189.065763 29.0
190.062504 16.0
190.073304 20.0
191.000936 40.0
192.081487 21.0
192.979989 74.0
193.097039 11.0
193.98014 15.0
195.063602 16.0
197.091045 25.0
198.107307 24.0
199.109598 71.0
202.066193 41.0
202.073173 38.0
203.084014 16.0
203.142655 30.0
204.079226 21.0
204.987087 26.0
206.093789 38.0
207.032891 147.0
208.026392 26.0
209.020854 23.0
210.124195 25.0
211.098057 15.0
215.076273 24.0
216.094625 20.0
217.108176 31.0
218.096618 13.0
220.109281 13.0
227.103862 23.0
228.086653 14.0
231.019468 25.0
231.107328 18.0
231.125198 28.0
235.124744 21.0
242.982396 16.0
245.08813 24.0
245.11573 57.0
247.116693 17.0
248.988206 14.0
250.997119 15.0
259.097721 11.0
263.116827 45.0
263.135897 111.0

