>compound 
>formula C48H78O20
>parentmass 992.54246590534
>ionization [M + H3N + H]+
>instrumentation Unknown (LCMS)
>source file:/Users/fanzhoukong/Documents/GitHub/Libgen/data/EAD_PFP/0_unknown_/spectrum.ms
>quality UNKNOWN

>ms2peaks
126.045719 78.0
127.051859 487.0
128.060889 1645.0
129.069449 667.0
130.078618 190.0
131.086128 966.0
132.080618 89.0
133.099218 583.0
135.086648 179.0
139.051397 121.0
141.069837 747.0
142.078077 370.0
143.084056 365.0
144.084156 88.0
145.100766 355.0
147.078106 58.0
161.095194 93.0
162.051524 134.0
163.059454 121.0
163.149544 581.0
165.072113 923.0
166.074243 146.0
167.083183 323.0
168.086313 307.0
169.100053 592.0
170.107933 212.0
171.117512 417.0
172.123642 184.0
173.134032 819.0
174.134452 59.0
175.144232 419.0
177.163392 366.0
178.078611 317.0
180.083021 99.0
181.095381 261.0
182.096021 96.0
183.116651 360.0
185.13716 299.0
186.13822 111.0
187.14597 1005.0
188.15242 120.0
189.16158 980.0
190.16802 130.0
191.13651 387.0
192.088429 89.0
193.102629 158.0
195.114399 105.0
197.129699 325.0
198.135038 97.0
199.144298 447.0
201.158038 676.0
202.073298 124.0
202.137378 51.0
203.179108 628.0
204.177338 74.0
205.151347 142.0
206.095317 101.0
207.028787 63.0
208.033597 69.0
208.115557 125.0
209.137147 113.0
211.150827 231.0
213.158426 439.0
214.173686 75.0
215.182726 375.0
217.158826 674.0
219.130915 139.0
219.170075 65.0
221.146875 184.0
221.164345 23.0
223.147195 128.0
225.156525 155.0
226.163084 23.0
227.179274 215.0
229.178444 233.0
231.177444 278.0
232.119734 74.0
233.153693 125.0
235.165413 281.0
237.164633 494.0
238.140223 84.0
239.178403 210.0
240.186962 101.0
241.196102 454.0
243.207012 131.0
245.134222 50.0
247.149121 80.0
247.170681 300.0
248.177411 148.0
249.178441 509.0
251.181911 115.0
253.19652 248.0
255.0893 217.0
255.20821 139.0
257.22475 81.0
259.16244 80.0
260.183799 141.0
261.184989 413.0
263.166129 109.0
265.017599 47.0
265.196249 209.0
266.208639 63.0
267.216538 169.0
269.225208 177.0
271.231708 52.0
273.090228 376.0
275.192337 200.0
279.202927 58.0
281.054006 179.0
281.228136 76.0
284.108756 23.0
285.192976 166.0
286.196396 114.0
287.201556 70.0
288.210165 147.0
291.107865 117.0
291.211475 54.0
299.201184 89.0
301.215924 297.0
305.226333 136.0
307.237193 43.0
308.111833 105.0
309.120282 2032.0
311.242412 23.0
314.222122 65.0
319.223891 77.0
323.27278 173.0
324.1082 116.0
325.11778 143.0
327.12568 263.0
329.225079 49.0
333.256239 63.0
339.228948 67.0
345.265637 62.0
347.274487 83.0
353.102176 22.0
353.251286 143.0
356.244026 24.0
359.269815 162.0
361.290995 65.0
367.275944 154.0
373.293003 56.0
375.294373 195.0
377.274452 192.0
379.292182 49.0
387.307011 403.0
389.283721 141.0
389.318511 114.0
391.29837 311.0
393.31046 381.0
393.31629 798.0
394.31748 71.0
395.32578 165.0
403.292909 111.0
403.306669 179.0
405.313878 1627.0
407.300358 295.0
409.307528 85.0
411.317658 64.0
413.308807 140.0
414.307187 84.0
415.294797 77.0
419.289086 187.0
420.302676 371.0
421.313476 880.0
422.319456 109.0
423.322626 912.0
424.328976 98.0
425.336515 568.0
431.292995 92.0
432.298584 130.0
433.317594 938.0
435.146664 223.0
437.307274 302.0
438.299344 168.0
438.317804 154.0
439.325403 1641.0
441.331693 216.0
441.339933 325.0
442.348933 187.0
443.348753 206.0
449.302942 421.0
450.312682 499.0
451.323542 3636.0
453.158871 151.0
454.229301 24.0
455.319821 147.0
457.324551 79.0
458.341181 65.0
459.350491 89.0
465.29882 91.0
466.31579 122.0
467.316919 1006.0
468.323359 903.0
469.341509 4221.0
470.169579 179.0
471.174829 2226.0
484.330127 93.0
485.330987 283.0
486.328537 533.0
487.346606 6831.0
488.346236 295.0
489.182206 147.0
502.327894 131.0
504.330064 74.0
505.346974 481.0
553.353407 55.0
560.362436 124.0
560.378666 54.0
561.360056 76.0
567.373545 24.0
574.916754 24.0
577.359803 24.0
579.388253 156.0
583.373053 64.0
589.415042 54.0
594.357971 58.0
595.371041 97.0
597.37818 864.0
612.370968 75.0
613.377378 252.0
615.385498 121.0
615.392758 665.0
629.371766 51.0
631.386166 515.0
632.390865 515.0
633.391415 2434.0
633.408685 8652.0
648.385193 110.0
648.397643 142.0
649.393303 1402.0
651.421993 2174.0
659.392081 73.0
666.39117 50.0
667.40563 335.0
677.386099 140.0
687.412347 22.0
705.433395 25.0
714.425343 52.0
719.401043 25.0
728.409891 54.0
735.36668 82.0
736.38713 161.0
741.40135 133.0
745.426499 51.0
748.441139 25.0
758.422407 69.0
759.431747 311.0
762.425886 110.0
775.429355 115.0
777.441134 476.0
793.433202 304.0
795.443272 431.0
795.448822 4778.0
807.41257 46.0
810.42728 76.0
811.442659 620.0
811.464999 535.0
813.464269 2096.0
818.431188 94.0
829.456757 525.0
839.448815 156.0
874.4938 70.0
883.473959 122.0
920.480544 77.0
921.476513 206.0
938.483661 87.0
939.510271 271.0
956.500498 144.0
957.494518 3928.0
957.530898 3743.0
961.499948 46.0
973.535956 89.0
974.532666 255.0
975.526806 3828.0
990.524483 80.0
991.532903 163.0
992.538823 5921.0

