>compound 
>formula C5H7N3O4
>parentmass 191.07747671718
>ionization [M + H3N + H]+
>instrumentation Unknown (LCMS)
>source file:/Users/fanzhoukong/Documents/GitHub/Libgen/data/EAD_PFP/0_unknown_/spectrum.ms
>quality UNKNOWN

>ms2peaks
50.01473 55.0
51.024327 220.0
52.029175 28.0
53.039532 51.0
54.03441 11.0
55.055237 123.0
55.934595 16.0
56.051885 15.0
56.965753 41.0
57.033793 7.0
57.93621 13.0
58.06453 8.0
59.050278 92.0
60.983933 55.0
61.008413 9.0
62.01489 14.0
63.023378 211.0
63.928726 10.0
64.029025 21.0
64.936803 13.0
65.039463 617.0
66.04508 31.0
67.053598 108.0
67.934856 8.0
68.053595 7.0
68.994263 130.0
70.065961 7.0
73.064933 25.0
74.015891 23.0
75.015418 7.0
75.022208 29.0
76.030196 46.0
77.039743 833.0
78.038651 42.0
78.046441 50.0
79.056178 178.0
80.053126 32.0
80.056636 55.0
81.070433 86.0
82.978799 10.0
83.085918 8.0
84.995144 29.0
86.014211 17.0
88.032866 5.0
89.039424 136.0
90.045191 39.0
91.055679 1131.0
92.055816 20.0
92.059576 124.0
93.059534 8.0
93.069934 40.0
94.064891 19.0
95.067059 18.0
95.084249 12.0
95.953577 18.0
97.067044 6.0
97.950222 5.0
98.097642 10.0
99.011799 6.0
99.991907 6.0
100.991604 17.0
102.045742 49.0
103.054639 168.0
104.051497 22.0
105.070234 162.0
105.962802 21.0
106.065682 10.0
106.070722 19.0
107.0496 6.0
107.085079 8.0
108.082877 24.0
109.078135 30.0
109.098594 9.0
111.00182 16.0
112.007287 5.0
113.000625 40.0
113.941873 6.0
115.05404 287.0
116.051267 17.0
116.059717 45.0
117.065525 118.0
118.041612 51.0
119.05168 12.0
119.06985 7.0
119.07627 22.0
119.08482 24.0
120.058538 17.0
120.081077 11.0
121.069635 12.0
121.103055 7.0
123.04369 7.0
126.045693 15.0
126.901701 6.0
127.05514 68.0
128.061968 234.0
128.901426 5.0
129.061635 27.0
129.068295 33.0
130.067413 46.0
130.084163 7.0
130.994121 20.0
131.07038 42.0
132.017528 17.0
132.058058 7.0
132.082818 6.0
133.024576 13.0
133.035876 36.0
133.066385 10.0
134.013903 23.0
135.055831 6.0
139.052471 9.0
140.048858 5.0
141.069736 59.0
141.923894 27.0
142.077973 9.0
143.069881 17.0
144.078178 11.0
145.053446 13.0
145.066416 20.0
145.969254 33.0
148.054959 86.0
149.089016 9.0
150.045074 16.0
151.054721 27.0
152.061729 92.0
153.067236 59.0
154.067554 18.0
154.073624 24.0
155.069901 28.0
155.078431 14.0
155.085751 13.0
156.085259 13.0
157.064686 6.0
157.089246 18.0
158.095194 28.0
158.985752 7.0
159.043812 7.0
159.092001 12.0
160.084499 7.0
160.113009 8.0
161.070147 6.0
162.042594 7.0
163.001722 8.0
163.070502 17.0
163.074262 87.0
163.87337 8.0
164.059009 19.0
165.071907 93.0
166.066434 32.0
167.074092 45.0
167.081692 19.0
168.078459 18.0
169.076917 12.0
170.066824 5.0
171.078842 6.0
173.050017 8.0
173.061617 21.0
173.097697 8.0
173.131207 6.0
174.998792 10.0
175.147852 6.0
176.05135 13.0
176.06045 33.0
177.049717 5.0
178.077045 30.0
179.079802 17.0
180.07882 22.0
180.987028 7.0
181.058187 6.0
182.079885 10.0
182.094425 8.0
183.191942 6.0
184.10796 5.0
188.05 9.0
189.072348 34.0
190.071795 11.0
191.071183 32.0
191.084713 35.0
191.115863 7.0

