>compound 
>formula C42H70O14
>parentmass 799.4838379300801
>ionization [M + H]+
>instrumentation Unknown (LCMS)
>source file:/Users/fanzhoukong/Documents/GitHub/Libgen/data/EAD_PFP/0_unknown_/spectrum.ms
>quality UNKNOWN

>ms2peaks
126.045549 66.0
127.047269 163.0
127.053889 157.0
128.061819 927.0
129.069289 737.0
130.071738 104.0
131.082578 328.0
132.086068 40.0
133.099028 510.0
134.107918 63.0
135.113798 212.0
136.111998 28.0
137.128767 61.0
139.048897 66.0
140.049907 48.0
141.071957 842.0
142.077877 261.0
143.085026 337.0
144.087506 108.0
145.098186 327.0
146.106486 38.0
147.109966 43.0
147.117106 172.0
161.131034 69.0
162.134844 29.0
163.059224 221.0
164.057733 38.0
165.065583 411.0
166.071473 98.0
167.081683 300.0
168.077173 184.0
168.087333 130.0
169.098543 286.0
171.108292 114.0
171.117272 685.0
172.116992 112.0
173.131212 638.0
174.134202 139.0
175.142672 315.0
176.059162 90.0
177.124022 93.0
177.156622 106.0
178.069221 143.0
178.077041 309.0
179.085051 218.0
180.084091 114.0
180.094611 45.0
181.099081 224.0
182.085191 85.0
182.106341 95.0
183.119051 266.0
184.122611 44.0
185.13024 375.0
186.13527 83.0
187.14704 530.0
188.1508 115.0
189.13571 184.0
189.16264 121.0
190.07726 89.0
191.08882 107.0
191.14436 52.0
192.085449 95.0
192.982579 58.0
193.098269 89.0
194.101469 56.0
195.078539 73.0
195.112749 167.0
195.123689 77.0
196.082749 30.0
197.132169 186.0
198.140278 49.0
199.145398 477.0
200.154478 90.0
201.164698 515.0
202.077198 114.0
203.138338 180.0
203.170458 165.0
204.091678 85.0
205.099147 80.0
205.155267 159.0
206.158327 57.0
207.032727 131.0
207.135637 52.0
208.031887 88.0
209.128357 133.0
210.098477 33.0
211.149127 100.0
212.115336 38.0
213.162426 256.0
214.170516 79.0
215.173806 151.0
216.157816 80.0
217.174406 341.0
217.196056 117.0
218.162996 70.0
219.175565 135.0
220.132355 69.0
221.149485 169.0
221.172785 172.0
221.188805 119.0
222.133905 40.0
223.127845 80.0
223.145415 89.0
224.129875 51.0
225.159135 157.0
226.165704 57.0
227.181914 265.0
228.093834 33.0
229.191464 281.0
231.151794 58.0
231.189024 135.0
232.117934 42.0
232.183594 44.0
233.139903 66.0
233.189283 103.0
234.165643 73.0
235.159063 112.0
236.151593 34.0
237.167323 76.0
239.161383 172.0
241.195762 100.0
242.197882 43.0
243.174582 60.0
243.209712 107.0
245.182942 98.0
245.195232 139.0
245.213632 169.0
247.179571 31.0
247.211911 43.0
248.987921 40.0
249.165721 56.0
249.222941 61.0
251.178441 109.0
252.183971 35.0
253.19149 91.0
255.19378 64.0
255.21256 129.0
257.2008 57.0
257.22439 122.0
259.20782 148.0
261.187799 159.0
261.214709 80.0
263.195979 208.0
264.186999 28.0
265.159169 42.0
265.194269 93.0
266.163499 52.0
267.003228 34.0
267.171318 177.0
267.203358 99.0
267.998188 29.0
268.184258 48.0
269.216788 77.0
271.205528 91.0
273.185388 76.0
274.193407 28.0
275.196797 162.0
277.192797 108.0
279.212357 118.0
280.216667 32.0
281.050346 70.0
281.226096 145.0
282.227436 54.0
283.171226 110.0
283.217396 109.0
285.247176 44.0
287.255966 41.0
289.213485 75.0
290.222275 29.0
291.157575 26.0
291.221115 54.0
293.215565 27.0
293.225635 255.0
294.232985 51.0
295.243734 1013.0
296.249494 57.0
297.255264 485.0
298.259384 48.0
299.231274 50.0
300.240404 28.0
301.210404 44.0
303.237013 32.0
305.225903 39.0
307.241923 68.0
309.255932 136.0
311.233352 343.0
312.239972 51.0
313.253462 914.0
314.261612 41.0
315.250531 113.0
315.269671 89.0
317.241741 53.0
319.242721 126.0
321.257001 118.0
323.24769 52.0
323.27058 110.0
325.11024 275.0
325.11378 430.0
326.11076 52.0
326.18153 29.0
327.23509 62.0
327.26521 151.0
329.245949 404.0
330.252819 44.0
331.264749 830.0
333.257549 69.0
335.272469 29.0
337.252058 100.0
338.254858 25.0
339.268168 91.0
340.277568 40.0
341.281228 62.0
342.289988 31.0
345.230567 99.0
347.264867 54.0
347.277657 119.0
349.255717 45.0
349.285017 45.0
351.265086 33.0
353.274726 49.0
353.294986 25.0
355.256846 34.0
356.269416 51.0
357.277835 39.0
361.286755 36.0
362.296695 28.0
363.300544 92.0
364.298314 57.0
365.286204 251.0
366.284824 64.0
369.279454 47.0
371.198313 28.0
375.299563 45.0
378.267822 50.0
379.224892 187.0
379.249702 140.0
380.248082 45.0
381.284152 43.0
383.295292 161.0
384.295171 50.0
386.227601 33.0
388.282591 53.0
389.319891 88.0
391.33463 80.0
393.31186 39.0
393.34488 98.0
395.30185 52.0
397.30857 27.0
401.301939 1184.0
402.330899 93.0
403.335629 1155.0
404.343539 281.0
405.313298 310.0
406.292118 58.0
407.333378 83.0
408.344328 70.0
409.344608 75.0
410.360018 54.0
412.364777 33.0
418.314176 47.0
419.330596 198.0
420.334226 502.0
421.339046 1883.0
421.357146 3050.0
422.353086 785.0
423.330076 252.0
425.339965 97.0
427.356655 33.0
431.331055 33.0
435.329984 56.0
436.330044 126.0
437.341484 277.0
438.352044 574.0
439.359673 4118.0
440.362303 1481.0
441.331083 202.0
442.333883 32.0
443.207883 67.0
453.341791 44.0
454.347681 56.0
455.354701 161.0
456.354481 438.0
457.361631 1194.0
457.367911 5359.0
458.374081 90.0
459.184011 37.0
461.33819 29.0
463.36245 46.0
469.362079 22.0
469.370569 59.0
471.314509 27.0
473.354118 73.0
474.369188 85.0
475.361838 72.0
475.383198 207.0
479.351398 36.0
545.350898 52.0
563.357065 28.0
564.380625 85.0
565.381785 156.0
566.395515 47.0
570.400884 30.0
582.390693 46.0
583.391123 152.0
583.398263 393.0
584.401922 207.0
589.409432 60.0
600.38599 65.0
600.40277 208.0
601.41858 660.0
602.40875 726.0
617.403318 62.0
618.408997 143.0
619.420407 1161.0
620.417967 490.0
620.432617 882.0
636.421755 74.0
637.432915 1311.0
763.458416 42.0
764.473796 122.0
780.463964 34.0
781.474154 112.0
782.484964 389.0
799.464451 191.0
799.483861 709.0

