>compound 
>formula C24H28O7
>parentmass 446.21732423943007
>ionization [M + H3N + H]+
>instrumentation Unknown (LCMS)
>source file:/Users/fanzhoukong/Documents/GitHub/Libgen/data/EAD_PFP/0_unknown_/spectrum.ms
>quality UNKNOWN

>ms2peaks
102.049542 36.0
111.223659 36.0
115.04441 84.0
115.05702 349.0
116.065867 21.0
117.077005 25.0
119.04188 38.0
119.0515 92.0
121.658694 19.0
126.038903 44.0
126.047703 326.0
126.089503 36.0
127.03949 38.0
127.05605 451.0
128.065098 1734.0
128.082828 100.0
129.069225 45.0
131.04214 80.0
131.06681 29.0
133.068445 53.0
139.046481 28.0
139.056881 63.0
140.062548 48.0
141.067206 251.0
141.070676 834.0
142.069583 51.0
142.080093 134.0
143.086071 4556.0
144.061498 208.0
145.041416 118.0
145.044956 251.0
145.063836 673.0
146.036484 110.0
146.073203 26.0
146.442833 43.0
147.046861 15165.0
147.779529 36.0
147.964159 29.0
148.045209 27.0
148.057129 57.0
148.345728 22.0
148.913026 29.0
149.027796 83.0
150.036434 33.0
150.053234 118.0
151.058101 629.0
151.55337 47.0
152.065119 5270.0
152.830757 27.0
153.074286 7393.0
154.078244 1108.0
155.070871 634.0
155.078181 1333.0
155.087951 2411.0
156.058119 1406.0
157.065666 4720.0
157.697345 31.0
158.039524 1375.0
159.044802 4446.0
159.915729 30.0
160.017339 122.0
160.044589 40.0
160.050779 54.0
160.425288 33.0
161.025127 781.0
161.043787 170.0
161.817955 35.0
162.033614 720.0
163.033992 125.0
163.041502 858.0
164.052499 28.0
164.063789 151.0
165.071647 2016.0
166.080084 29.0
167.045992 134.0
167.051052 348.0
168.060439 920.0
169.066457 1236.0
169.684795 33.0
170.072944 192.0
170.479453 50.0
171.069612 3474.0
171.079872 14701.0
171.76091 23.0
172.04091 48.0
172.05506 122.0
172.083319 50.0
173.052317 319.0
173.061357 1150.0
174.015025 39.0
174.036995 176.0
174.068025 52.0
174.437844 38.0
174.453384 115.0
174.461134 110.0
174.476664 54.0
174.505134 49.0
175.045172 45331.0
175.80032 46.0
175.99779 110.0
176.02509 65.0
176.04459 94.0
176.06017 156.0
176.07317 189.0
176.12128 136.0
176.203189 76.0
176.212299 174.0
176.351459 43.0
176.482889 54.0
176.524529 43.0
176.675538 27.0
176.817498 25.0
177.055957 104.0
177.066377 47.0
177.076817 32.0
177.100287 22.0
177.367636 70.0
177.502036 18.0
177.669136 35.0
177.776235 26.0
177.802345 21.0
178.066305 72.0
178.091145 28.0
178.176134 75.0
178.312154 27.0
178.427274 25.0
178.641953 59.0
179.054622 50.0
179.062502 123.0
179.693571 73.0
180.06144 57.0
180.591599 35.0
181.068457 9671.0
181.699106 19.0
182.045235 60.0
182.074315 312.0
182.592854 11.0
183.043192 171.0
183.076332 492.0
184.05451 5947.0
184.465409 80.0
184.603809 34.0
185.063298 23104.0
186.030715 146.0
186.050765 69.0
186.060115 63.0
186.089525 43.0
186.344844 24.0
186.438454 33.0
187.043543 5829.0
187.621441 44.0
187.887201 33.0
188.02688 37.0
188.05643 26.0
188.12495 68.0
188.415289 46.0
188.469079 42.0
189.035678 436.0
189.049158 4544.0
190.018835 45.0
190.079605 47.0
190.693274 23.0
190.801513 25.0
191.038393 481.0
191.598011 26.0
192.06474 235.0
192.761819 43.0
192.991758 34.0
193.998776 25.0
194.271755 38.0
194.918123 29.0
195.056293 54.0
195.784821 86.0
196.856808 60.0
197.045168 110.0
197.058918 332.0
197.072668 221.0
198.065446 633.0
198.400605 51.0
198.754014 29.0
199.066253 19485.0
199.778691 35.0
200.040471 59.0
200.079261 69.0
200.11114 21.0
200.15826 33.0
200.25944 72.0
200.882359 22.0
201.057348 4854.0
201.940376 22.0
202.026696 56.0
202.047566 64.0
202.075416 34.0
202.256485 42.0
202.560324 49.0
203.038823 10036.0
203.625522 62.0
204.029711 24.0
204.117871 50.0
204.40768 25.0
204.645859 82.0
205.767087 34.0
205.963866 30.0
206.096046 35.0
207.005544 33.0
207.032323 33.0
207.695332 56.0
208.068211 78.0
209.050038 228.0
209.065618 853.0
209.934796 39.0
210.041256 20.0
210.056866 22.0
210.068236 77.0
211.041944 72.0
211.076103 46.0
211.617272 31.0
212.047861 594.0
212.32612 44.0
212.62457 32.0
213.060459 16765.0
213.713007 27.0
214.062586 67.0
214.091236 30.0
215.071334 4205.0
215.519803 52.0
215.679472 34.0
215.829122 47.0
216.062331 51.0
216.086811 120.0
216.348981 42.0
216.36915 44.0
216.53778 18.0
217.090239 30858.0
217.990386 22.0
218.084406 26.0
218.234886 36.0
218.373836 12.0
219.069254 77.0
219.440593 76.0
219.532023 26.0
220.028711 52.0
220.043231 64.0
221.476918 23.0
221.993307 27.0
223.090804 39.0
225.041089 39.0
225.067529 91.0
225.747017 117.0
226.056217 74.0
226.067997 127.0
226.079777 94.0
226.122506 29.0
226.305196 81.0
226.312566 176.0
226.324366 263.0
226.340566 194.0
226.541055 50.0
226.573495 98.0
226.613305 38.0
226.768175 34.0
227.073644 46321.0
228.074112 185.0
228.266481 540.0
228.481141 158.0
228.59962 28.0
229.056029 4840.0
229.364518 73.0
233.344369 111.0
234.895735 90.0
235.528243 350.0
235.606423 171.0
236.262482 1381.0
236.551681 779.0
237.995767 196.0
244.074642 23.0
244.264442 100.0
244.276692 274.0
244.282832 133.0
244.527851 60.0
244.587611 41.0
245.08423 54424.0
246.065207 127.0
247.844783 36.0
262.106238 87.0
298.842597 9242.0
302.722988 5908.0
306.05233 668.0
307.144977 12.0
309.110462 15.0
311.134047 53.0
313.526641 12.0
315.291477 12.0
316.210565 588.0
317.397972 12.0
318.968898 9291.0
319.700646 17373.0
320.021255 15.0
322.859478 20.0
323.507577 51.0
324.839214 85.0
325.671361 12.0
327.111968 263.0
327.126158 364.0
327.147428 121.0
328.002016 40.0
328.065886 71.0
328.074766 96.0
328.110255 103.0
328.135095 77.0
328.387115 75.0
328.587734 30.0
328.694304 37.0
329.142023 38016.0
330.13091 43.0
330.2377 56.0
330.42645 48.0
330.47808 64.0
330.629479 94.0
330.677579 101.0
330.716759 115.0
331.016108 30.0
331.180108 17.0
331.213978 38.0
331.636647 37.0
331.907886 62.0
331.959616 45.0
332.127436 24.0
332.148856 21.0
332.341695 15.0
332.681074 49.0
333.338973 41.0
333.927661 80.0
334.973889 23.0
335.641187 108.0
336.853734 134.0
338.47022 50.0
339.512727 38.0
341.483063 37.0
342.45767 14.0
342.827599 12.0
345.349813 30.0
346.884349 22.0
347.170879 41.0
349.650362 12.0
350.267951 15.0
350.68607 12.0
352.809965 12.0
355.706598 33.0
356.244436 49.0
356.834495 37.0

