>compound 
>formula C26H32O12
>parentmass 554.2231974662
>ionization [M + H3N + H]+
>instrumentation Unknown (LCMS)
>source file:/Users/fanzhoukong/Documents/GitHub/Libgen/data/EAD_PFP/0_unknown_/spectrum.ms
>quality UNKNOWN

>ms2peaks
50.016866 658.0
51.024373 2460.0
52.03134 206.0
53.039577 581.0
55.019671 1580.0
55.934629 25.0
57.031606 98.0
60.998494 24.0
61.029094 42.0
62.015681 40.0
63.023388 312.0
64.031386 46.0
65.040263 1112.0
66.04668 137.0
67.053607 68.0
69.024371 95.0
70.042998 17.0
71.014595 25.0
73.02557 22.0
74.015877 33.0
75.023044 50.0
76.026761 24.0
76.030171 68.0
77.044888 4643.0
77.781816 41.0
77.868236 20.0
78.048145 594.0
79.056152 2904.0
80.05748 54.0
80.062739 163.0
81.035127 423.0
82.065734 19.0
83.086771 19.0
85.029425 102.0
89.040294 377.0
90.046991 257.0
91.057488 1770.0
92.049175 31.0
92.056695 98.0
93.048132 70.0
93.067972 60.0
94.044869 615.0
95.049796 352.0
97.022571 18.0
97.030291 117.0
97.944328 29.0
102.048626 68.0
103.055543 173.0
104.051411 35.0
104.062401 27.0
105.049058 214.0
105.058088 127.0
105.066128 150.0
106.031285 24.0
106.071635 16.0
106.697073 138.0
106.713263 104.0
107.055582 11531.0
108.058329 1284.0
108.351808 37.0
115.054969 710.0
116.062756 99.0
116.515945 95.0
117.069633 300.0
118.04148 20.0
119.040858 130.0
119.050478 413.0
120.055185 27.0
121.063032 114.0
123.044636 50.0
126.044447 47.0
127.051675 514.0
128.061812 168.0
129.068139 71.0
131.051153 688.0
133.065097 78.0
135.047712 79.0
135.062492 124.0
139.818068 98.0
141.923692 26.0
145.061503 96.0
145.067393 344.0
146.07205 510.0
147.045687 783.0
148.047614 25.0
149.061291 128.0
150.052049 24.0
152.055473 58.0
152.061513 156.0
153.06945 72.0
154.057607 16.0
154.069767 21.0
155.050134 27.0
155.549453 44.0
156.081371 26.0
157.065678 105.0
158.074005 20.0
158.090035 30.0
159.048523 174.0
159.058393 166.0
159.078173 115.0
161.062447 203.0
162.061054 61.0
163.032731 34.0
163.046501 683.0
163.075281 30.0
163.690079 15.0
164.058768 31.0
165.070385 301.0
166.077552 54.0
167.0726 28.0
167.08273 97.0
168.062967 18.0
169.063904 36.0
170.069121 56.0
170.085721 20.0
171.045268 37.0
173.058772 133.0
174.06801 1569.0
175.038697 120.0
175.074987 23.0
176.066684 43.0
177.070291 66.0
178.064998 27.0
178.076758 108.0
179.072975 46.0
180.086432 97.0
181.055269 27.0
181.075039 57.0
182.086207 16.0
183.032574 17.0
183.081624 37.0
185.059268 25.0
187.055582 24.0
187.077022 26.0
188.048369 28.0
189.055867 2172.0
190.062034 462.0
191.049191 50.0
191.072221 249.0
192.085078 28.0
193.080215 33.0
194.075162 32.0
195.083619 73.0
195.093209 32.0
196.098836 30.0
197.064394 39.0
198.066801 28.0
201.093432 16.0
202.079579 20.0
203.065316 79.0
204.081443 22.0
205.08468 20.0
207.067525 244.0
208.063952 28.0
208.072412 28.0
209.081159 42.0
211.074633 56.0
212.08777 64.0
213.091867 1360.0
214.061095 24.0
215.071302 40.0
215.082802 32.0
216.086769 19.0
218.074233 22.0
219.08516 31.0
221.084875 40.0
223.046859 21.0
223.062939 28.0
223.090749 97.0
224.098556 25.0
225.089523 23.0
227.091297 18.0
231.081236 26.0
232.075563 35.0
233.08251 37.0
234.105107 16.0
235.071364 29.0
235.098404 77.0
237.100359 18.0
239.088093 87.0
239.103223 71.0
241.084097 287.0
250.075131 56.0
250.087541 109.0
251.067578 26.0
251.095518 2139.0
252.111745 14.0
253.094203 17.0
255.100767 18.0
263.093564 29.0
265.022878 16.0
267.098552 42.0
268.09208 22.0
269.106757 1167.0
270.129794 15.0
271.133791 25.0
279.096988 63.0
281.090612 99.0
281.102112 219.0
282.048949 28.0
286.128898 23.0
287.128955 15.0
296.105339 95.0
297.109176 137.0
297.115926 255.0
312.069433 33.0
314.120027 24.0
325.100436 33.0
325.112796 41.0
329.141864 93.0
338.118708 21.0
356.131497 36.0
357.136014 1676.0
369.131459 65.0
375.144662 1076.0
385.129773 64.0
395.010445 19.0
396.128792 40.0
413.149583 104.0
519.179558 41.0
536.18238 24.0
554.224498 565.0

