>compound 
>formula C18H20O2
>parentmass 291.13555088374005
>ionization [M + Na]+
>instrumentation Unknown (LCMS)
>source file:/Users/fanzhoukong/Documents/GitHub/Libgen/data/EAD_PFP/0_unknown_/spectrum.ms
>quality UNKNOWN

>ms2peaks
50.0159 162.0
51.022709 548.0
52.031777 120.0
53.037885 141.0
54.035624 27.0
55.054282 386.0
56.055321 35.0
57.032819 455.0
59.049286 27.0
59.931794 7.0
62.015411 22.0
63.0239 149.0
64.029548 22.0
65.039206 871.0
66.044025 68.0
67.054943 476.0
68.99481 139.0
69.06887 27.0
71.049827 27.0
74.018142 43.0
75.01938 53.0
76.027349 45.0
77.039467 1158.0
78.045286 288.0
79.056764 523.0
80.059852 33.0
81.071021 368.0
82.071679 26.0
83.084728 78.0
85.063494 87.0
86.013903 60.0
88.03256 34.0
89.038188 169.0
91.057235 1943.0
92.055503 153.0
93.069612 400.0
94.06837 78.0
95.065778 145.0
95.083928 148.0
96.086687 34.0
97.099535 98.0
99.081662 107.0
101.037539 16.0
102.046397 85.0
103.055286 528.0
104.060154 85.0
105.067882 529.0
106.068361 43.0
107.084729 252.0
109.066526 219.0
110.033405 22.0
111.080943 43.0
112.015221 33.0
112.99818 47.0
114.033548 34.0
115.052627 533.0
115.054727 975.0
116.061455 255.0
117.069393 912.0
118.065722 62.0
118.078492 19.0
119.08337 460.0
121.066017 150.0
121.101597 161.0
122.036965 30.0
123.075904 30.0
123.083514 56.0
123.096554 97.0
125.077141 38.0
125.096861 169.0
126.044209 37.0
127.053647 164.0
128.063786 680.0
129.072364 536.0
130.075963 162.0
131.084561 1120.0
132.058779 25.0
133.077278 200.0
134.099696 20.0
135.082755 431.0
137.094061 74.0
140.047277 25.0
141.067005 120.0
141.073975 74.0
142.077554 54.0
143.084702 211.0
144.07775 43.0
145.076609 372.0
146.077737 39.0
147.072786 182.0
148.084334 14.0
149.076612 131.0
149.098142 103.0
149.110112 66.0
150.048231 35.0
151.053079 63.0
151.067529 40.0
151.112069 45.0
152.062498 213.0
153.068006 93.0
153.071646 174.0
154.065884 56.0
154.076824 50.0
155.076763 79.0
155.085303 142.0
156.054231 43.0
156.092171 47.0
157.09984 370.0
158.094748 41.0
158.109518 37.0
159.113786 318.0
160.116275 39.0
161.098283 438.0
163.07507 51.0
163.10758 135.0
164.118778 34.0
165.073947 236.0
166.063455 60.0
166.079865 60.0
167.082504 178.0
168.067822 53.0
168.083072 31.0
168.103392 37.0
169.10191 67.0
170.093179 31.0
171.109117 74.0
171.116807 350.0
172.053536 41.0
172.125516 21.0
173.113974 118.0
173.125584 184.0
175.109781 117.0
175.130511 105.0
177.090948 54.0
178.079166 95.0
179.087185 78.0
180.090143 59.0
181.098571 93.0
183.094678 95.0
183.119848 68.0
184.094167 30.0
184.111446 40.0
185.127045 124.0
187.114332 55.0
187.147842 138.0
189.092059 61.0
189.129778 52.0
190.060487 37.0
191.086905 76.0
191.143795 52.0
192.095744 27.0
192.110684 22.0
193.048702 1196.0
194.094081 25.0
195.094379 62.0
195.116279 77.0
195.132699 28.0
196.134297 38.0
197.134336 39.0
199.136523 89.0
199.144823 212.0
200.155251 27.0
201.075189 28.0
201.129369 101.0
202.075208 53.0
203.101416 65.0
203.136326 41.0
203.148886 47.0
204.089655 23.0
205.052233 20.0
205.090103 40.0
206.091601 43.0
207.03491 106.0
207.05606 55.0
208.128748 36.0
209.127717 52.0
209.136217 54.0
210.123375 69.0
211.100073 26.0
211.151313 32.0
212.120402 13.0
213.12601 30.0
213.14318 105.0
213.16321 90.0
215.092667 33.0
215.157317 71.0
216.095236 31.0
217.160754 581.0
219.119781 121.0
221.099268 21.0
223.130084 33.0
224.139443 54.0
227.142788 14.0
227.179698 188.0
231.119772 41.0
231.134682 70.0
231.157022 93.0
231.170421 23.0
233.137688 65.0
233.154138 35.0
235.090735 20.0
237.139422 18.0
237.162042 79.0
243.211992 18.0
245.183719 127.0
245.189839 120.0
247.147976 24.0
247.197266 35.0
249.150993 104.0
255.178883 168.0
255.194523 100.0
261.147364 30.0
265.021168 35.0
267.000744 62.0
270.131259 14.0
273.184485 1027.0
275.166651 36.0
281.049432 86.0
290.134527 35.0
291.139926 6906.0

