>compound 
>formula C22H22O10
>parentmass 469.11051790476006
>ionization [M + Na]+
>instrumentation Unknown (LCMS)
>source file:/Users/fanzhoukong/Documents/GitHub/Libgen/data/EAD_PFP/0_unknown_/spectrum.ms
>quality UNKNOWN

>ms2peaks
110.102968 11.0
115.052305 80.0
116.056926 14.0
117.056367 26.0
118.063289 20.0
119.08521 34.0
120.081471 18.0
123.043015 21.0
126.046119 20.0
127.055571 39.0
128.059062 79.0
129.068743 64.0
130.986726 33.0
148.109139 11.0
150.046791 28.0
151.051663 80.0
152.065904 170.0
153.067795 87.0
154.065657 50.0
155.080208 51.0
156.077279 53.0
157.070171 33.0
157.103321 22.0
158.083462 36.0
160.073935 21.0
162.030717 22.0
163.032329 18.0
163.053599 19.0
164.04833 16.0
165.069992 125.0
166.070853 54.0
167.072194 79.0
168.077816 31.0
169.080087 65.0
170.071278 31.0
171.08076 27.0
173.080302 58.0
175.039625 20.0
176.059816 26.0
178.076409 84.0
179.08571 54.0
180.985073 26.0
181.070733 34.0
183.028256 21.0
184.038207 15.0
185.040278 73.0
185.060268 35.0
187.131641 30.0
189.071724 29.0
189.109444 32.0
191.001506 58.0
191.075966 22.0
192.067118 23.0
192.983259 47.0
194.11035 31.0
195.105202 66.0
197.080594 13.0
198.952597 11.0
202.055591 20.0
202.083461 42.0
203.143212 27.0
204.088154 20.0
205.087215 29.0
206.095726 21.0
207.126458 70.0
209.05681 14.0
213.048726 27.0
213.081606 26.0
215.081108 21.0
217.102951 22.0
218.098602 53.0
219.100854 22.0
225.043742 59.0
229.110627 15.0
232.105221 11.0
236.095127 11.0
241.055033 25.0
242.981356 16.0
244.112667 27.0
248.991764 41.0
250.983626 20.0
253.080029 44.0
255.089702 50.0
259.113957 17.0
262.061651 12.0
265.019605 70.0
267.069628 45.0
269.085801 12.0
271.067583 23.0
277.084321 40.0
281.051117 83.0
282.053838 17.0
283.056649 40.0
283.074779 42.0
284.064581 110.0
289.087687 32.0
295.155356 35.0
305.041939 61.0
306.04881 116.0
307.059061 90.0
319.059808 12.0
332.070235 46.0
333.072466 31.0
335.052749 50.0
341.151817 20.0
346.018224 12.0
349.141268 23.0
350.077279 12.0
353.155953 17.0
357.010328 31.0
375.013982 18.0
376.052374 12.0
378.207807 12.0
390.183383 22.0
392.074285 12.0
415.357086 27.0
421.090734 32.0
434.201442 19.0
434.211632 52.0
434.225922 15.0
439.102018 61.0
440.10846 106.0
448.954541 12.0
451.103354 16.0
452.192186 28.0
467.090766 48.0
467.109816 64.0
467.527016 25.0
467.548196 42.0
468.105447 105.0
469.112748 6936.0

