>compound 
>formula C53H86O22
>parentmass 1097.5502954023198
>ionization [M + Na]+
>instrumentation Unknown (LCMS)
>source file:/Users/fanzhoukong/Documents/GitHub/Libgen/data/EAD_PFP/0_unknown_/spectrum.ms
>quality UNKNOWN

>ms2peaks
126.047312 82.0
127.054562 135.0
128.063593 387.0
129.065504 146.0
130.070194 87.0
130.991305 80.0
131.069795 121.0
132.082226 43.0
133.100836 72.0
134.094987 34.0
135.113348 22.0
139.0542 110.0
140.047121 27.0
141.065662 180.0
142.075062 55.0
143.085713 69.0
144.076444 63.0
145.076474 46.0
145.096524 39.0
145.971045 21.0
146.094175 65.0
148.109236 11.0
164.060977 100.0
165.070088 337.0
166.065898 114.0
166.075998 169.0
167.074819 215.0
168.06141 78.0
168.07919 77.0
169.07765 37.0
169.08401 65.0
170.094391 108.0
172.116452 45.0
173.102303 31.0
175.050094 22.0
176.065105 107.0
177.068726 19.0
178.073886 272.0
179.083207 91.0
180.076968 62.0
180.179518 67.0
181.093248 45.0
182.187759 84.0
183.03367 61.0
183.09066 71.0
185.041711 33.0
185.111011 51.0
187.054022 37.0
187.147822 45.0
188.061563 50.0
189.070474 203.0
190.069924 59.0
190.076664 56.0
191.001595 168.0
191.085555 19.0
192.083526 74.0
192.984726 113.0
193.097696 18.0
194.103637 61.0
195.087538 43.0
195.113538 54.0
196.109599 29.0
198.1259 20.0
201.057142 55.0
201.169682 30.0
202.077993 89.0
203.143333 218.0
204.082674 49.0
204.149864 41.0
206.097245 23.0
207.032126 233.0
208.029887 50.0
209.028597 32.0
210.987698 25.0
211.145649 28.0
212.99165 39.0
213.16039 29.0
214.063841 33.0
215.085531 50.0
216.086632 90.0
217.101603 46.0
219.103884 34.0
220.117205 33.0
223.144787 21.0
226.081099 77.0
227.073509 22.0
228.09024 53.0
231.046912 21.0
233.098883 24.0
239.038047 27.0
241.077989 33.0
242.082899 32.0
243.08533 80.0
244.121961 26.0
248.148603 24.0
248.177933 21.0
248.987264 74.0
250.968235 23.0
253.193927 20.0
255.099218 37.0
257.098029 22.0
259.079421 30.0
262.248943 25.0
264.173594 22.0
265.019725 85.0
266.999346 117.0
270.200698 39.0
275.072621 31.0
277.166003 12.0
280.211055 33.0
281.051295 150.0
282.050686 35.0
283.043607 53.0
285.090968 25.0
287.07098 20.0
289.087831 34.0
299.076358 17.0
301.088999 21.0
303.07426 74.0
315.067188 29.0
317.08397 27.0
325.215505 21.0
328.236357 14.0
329.087028 23.0
331.096429 44.0
336.586003 12.0
343.933238 11.0
345.093298 69.0
347.09617 368.0
349.112161 336.0
365.105732 41.0
375.093839 40.0
377.10763 59.0
379.212671 31.0
391.118779 84.0
393.099341 38.0
395.301062 35.0
403.120407 29.0
404.130048 32.0
405.135029 290.0
417.140097 12.0
419.125208 15.0
425.341182 19.0
431.334296 12.0
433.130648 143.0
434.352728 12.0
435.149329 58.0
435.329169 39.0
447.326857 36.0
449.129138 37.0
454.346882 67.0
461.152246 12.0
461.206936 54.0
463.148678 18.0
465.159999 218.0
471.347713 12.0
472.409604 12.0
475.134646 26.0
477.152527 81.0
477.345157 12.0
491.128306 38.0
492.138317 126.0
493.151568 398.0
494.163648 27.0
495.165909 620.0
509.144709 153.0
509.146909 344.0
511.16482 702.0
523.342718 34.0
535.335276 12.0
537.277237 12.0
539.163529 47.0
550.346336 12.0
554.414639 12.0
567.369598 81.0
579.188575 14.0
580.351426 12.0
581.383217 180.0
582.394578 140.0
583.399768 23.0
593.251025 24.0
595.276116 32.0
608.409725 12.0
609.379026 38.0
611.380617 12.0
618.398382 12.0
621.393564 12.0
623.353525 46.0
626.367997 65.0
626.382707 171.0
627.388318 438.0
637.357865 51.0
637.370195 206.0
651.380214 14.0
655.379187 136.0
667.383645 44.0
669.392006 26.0
683.384025 35.0
685.385547 23.0
713.386976 54.0
715.321907 12.0
723.406512 45.0
726.302384 42.0
727.329735 33.0
728.318196 44.0
739.307033 26.0
740.308864 56.0
740.324914 159.0
741.332794 640.0
753.427042 52.0
757.417275 49.0
769.407823 37.0
771.406294 84.0
771.436264 97.0
772.437855 27.0
773.456466 38.0
783.462763 13.0
787.413445 85.0
788.425356 47.0
789.446227 120.0
789.459957 103.0
794.33661 13.0
795.375061 33.0
799.433233 103.0
800.444524 41.0
801.434275 73.0
801.456425 44.0
807.352189 13.0
812.375872 13.0
815.422134 47.0
816.426715 84.0
817.434645 1302.0
829.435083 28.0
830.448204 60.0
831.464815 98.0
845.449134 25.0
859.443833 16.0
859.455304 42.0
861.461105 32.0
863.457686 34.0
871.909602 11.0
873.460753 39.0
875.436394 40.0
876.451165 19.0
887.483092 23.0
889.468634 43.0
901.446422 49.0
903.477003 192.0
915.477321 43.0
916.464622 57.0
916.485372 112.0
917.467252 561.0
917.496912 1099.0
918.500143 70.0
921.513085 20.0
931.469272 25.0
932.471162 69.0
933.482513 429.0
934.473484 67.0
935.503945 29.0
946.487352 41.0
947.494183 185.0
947.521343 114.0
948.510663 369.0
949.485394 207.0
950.496935 62.0
951.487775 72.0
951.505905 85.0
961.476612 37.0
962.424553 13.0
963.497673 354.0
964.504394 56.0
965.508665 98.0
977.474673 28.0
978.482613 80.0
979.481814 433.0
991.478342 31.0
992.502703 60.0
993.502883 281.0
1006.504482 25.0
1007.533473 41.0
1015.503198 13.0
1020.494722 29.0
1021.527742 13.0
1035.501932 48.0
1037.526713 80.0
1037.555033 52.0
1038.517684 33.0
1039.512434 30.0
1041.496816 27.0
1051.564932 28.0
1053.545034 89.0
1053.560904 53.0
1065.534552 87.0
1066.545292 70.0
1067.511723 39.0
1069.557864 62.0
1079.531871 70.0
1081.509042 83.0
1082.530533 85.0
1093.970481 40.0
1094.518211 35.0
1095.536032 622.0
1096.560933 1712.0
1097.569973 9398.0

