>compound 
>formula C22H20O8
>parentmass 413.12309860116005
>ionization [M + H]+
>instrumentation Unknown (LCMS)
>source file:/Users/fanzhoukong/Documents/GitHub/Libgen/data/EAD_PFP/0_unknown_/spectrum.ms
>quality UNKNOWN

>ms2peaks
115.056868 152.0
116.06362 30.0
119.058864 74.0
121.012227 26.0
121.025157 77.0
123.03472 73.0
123.0445 188.0
123.05211 108.0
128.065038 29.0
129.03468 33.0
133.028876 64.0
139.030345 99.0
139.055755 107.0
141.063748 134.0
141.070728 158.0
142.04512 31.0
142.08016 43.0
143.032231 59.0
143.053321 51.0
144.058033 87.0
144.063913 38.0
145.028505 149.0
145.041495 130.0
145.053295 72.0
146.040126 36.0
146.074466 76.0
147.021998 210.0
147.027928 706.0
147.043378 61.0
149.023111 6543.0
150.040142 56.0
150.046142 365.0
151.046184 144.0
151.054614 588.0
152.062835 2880.0
153.069557 623.0
154.078389 102.0
155.04784 231.0
155.06248 130.0
155.08687 46.0
156.055812 31.0
156.076622 29.0
157.026543 70.0
157.046183 138.0
157.068273 245.0
157.532714 47.0
158.047085 49.0
158.064325 42.0
158.071715 50.0
159.040036 169.0
159.064736 57.0
159.080806 328.0
160.012558 84.0
160.047258 49.0
161.025329 492.0
161.041489 168.0
162.035071 238.0
162.058751 64.0
163.041692 5209.0
164.061484 206.0
165.060536 88.0
165.069346 702.0
166.044957 26.0
166.058827 35.0
166.077777 73.0
167.024699 28.0
167.047499 129.0
167.056349 67.0
168.05812 134.0
168.06446 120.0
169.065432 177.0
170.041263 36.0
170.066813 36.0
170.075763 50.0
171.045515 327.0
171.053205 216.0
171.083965 38.0
172.051456 101.0
173.012658 67.0
173.034568 194.0
173.060338 123.0
174.056659 36.0
175.037691 169.0
175.053241 73.0
176.065663 157.0
177.060164 49.0
177.067984 88.0
177.091454 25.0
178.058776 55.0
178.079696 354.0
179.049697 138.0
179.066737 167.0
179.075907 182.0
179.099497 54.0
180.059139 92.0
181.06747 1108.0
182.060102 51.0
182.074652 107.0
182.095802 64.0
183.046173 57.0
183.076683 68.0
184.052195 52.0
185.059637 467.0
185.082297 40.0
186.036418 35.0
186.069828 66.0
187.03855 98.0
187.05329 197.0
188.055461 37.0
189.022593 1689.0
189.071093 53.0
190.019224 76.0
190.025974 462.0
190.043534 78.0
190.080004 50.0
191.034716 1714.0
191.079406 67.0
192.056997 212.0
193.065659 121.0
193.086079 61.0
193.095619 57.0
195.049872 75.0
195.060812 78.0
195.078602 100.0
195.099132 105.0
196.026574 36.0
196.052634 79.0
197.038725 64.0
197.057975 245.0
197.075865 102.0
198.039687 40.0
199.039048 53.0
199.072218 63.0
200.03954 32.0
200.05756 27.0
201.056431 207.0
202.048033 29.0
202.075883 180.0
203.036504 41.0
203.070014 75.0
203.079774 87.0
203.088154 74.0
204.081956 194.0
205.041727 29.0
205.073978 254.0
205.085208 222.0
206.059979 68.0
206.071219 78.0
206.083889 94.0
206.76791 42.0
207.052551 65.0
207.069471 98.0
208.055992 106.0
208.081432 59.0
209.051974 95.0
209.061874 847.0
210.070175 131.0
211.058127 47.0
211.076627 138.0
211.137837 33.0
212.044118 111.0
212.062658 66.0
213.04957 48.0
213.07816 49.0
214.054521 34.0
215.038853 121.0
215.089153 51.0
216.041295 32.0
217.014306 45.0
217.060486 63.0
218.070508 80.0
218.103788 31.0
219.024889 114.0
219.043729 91.0
219.077089 56.0
220.056901 338.0
220.068531 136.0
221.060742 152.0
221.085512 67.0
221.097172 62.0
221.114642 85.0
222.082954 53.0
223.040195 106.0
223.059205 80.0
223.067995 75.0
223.094335 70.0
223.117745 69.0
224.050837 109.0
224.061087 93.0
225.056388 787.0
226.07598 89.0
227.059502 74.0
227.071312 138.0
228.030373 52.0
228.049603 49.0
229.047775 89.0
230.063006 28.0
231.037278 74.0
231.058118 49.0
231.081938 114.0
232.088219 52.0
233.042851 46.0
233.054811 48.0
233.077241 47.0
233.096681 48.0
234.042902 66.0
234.068362 133.0
235.073614 163.0
235.174244 49.0
236.031335 37.0
236.053916 101.0
237.049827 532.0
237.057387 1007.0
238.064479 2672.0
239.03737 68.0
239.06917 471.0
240.042592 59.0
240.050152 75.0
241.027083 73.0
241.052953 254.0
242.071535 61.0
243.032716 31.0
243.061726 46.0
244.018748 41.0
244.043238 45.0
245.061969 89.0
246.070551 68.0
247.079663 62.0
247.091973 68.0
247.124323 66.0
248.049174 272.0
248.064604 133.0
248.084664 129.0
249.046856 60.0
249.057696 168.0
249.097886 154.0
250.066697 103.0
250.083737 74.0
250.102327 77.0
251.069999 916.0
251.083959 445.0
252.0644 408.0
252.08152 265.0
253.059212 897.0
253.798423 37.0
254.046623 71.0
254.057543 121.0
255.006235 40.0
255.057855 157.0
255.115745 50.0
255.464796 24.0
256.038176 25.0
257.045528 379.0
258.05484 51.0
259.023531 67.0
259.062961 55.0
259.078731 269.0
260.084143 67.0
261.048734 36.0
261.072454 120.0
261.085114 66.0
261.104124 111.0
262.061096 114.0
263.070657 478.0
264.040779 88.0
264.071019 104.0
265.05256 18933.0
266.055092 582.0
266.625833 73.0
267.049904 173.0
267.067514 1486.0
268.049755 50.0
268.080245 32.0
268.513476 36.0
269.046677 349.0
269.090077 78.0
270.047078 59.0
270.061568 53.0
271.02996 139.0
271.04448 104.0
271.07189 95.0
273.054493 50.0
273.086873 38.0
274.023394 55.0
274.067164 93.0
274.080134 101.0
275.086576 84.0
275.101216 186.0
275.120686 112.0
276.041137 42.0
276.073698 51.0
276.106258 48.0
277.039759 58.0
277.056089 146.0
277.069119 190.0
277.083799 668.0
277.096829 349.0
278.040191 71.0
278.054901 57.0
278.074491 83.0
278.087551 172.0
278.486301 33.0
279.070222 6164.0
280.039884 111.0
280.056274 544.0
280.077574 283.0
280.420324 58.0
281.057195 2592.0
282.051667 349.0
282.058237 777.0
283.042948 167.0
283.067668 1333.0
284.0294 48.0
284.07395 74.0
284.820751 42.0
285.015881 33.0
285.060521 24.0
285.088631 65.0
285.810283 43.0
286.095193 59.0
287.071975 389.0
287.095225 99.0
288.052106 128.0
288.080366 278.0
288.098646 151.0
289.005568 58.0
289.058858 107.0
289.088848 366.0
290.060719 483.0
291.059281 159.0
291.072651 1134.0
292.059562 127.0
293.053184 5681.0
294.061915 14898.0
294.777976 49.0
295.069027 3630.0
296.034048 68.0
296.055938 81.0
296.071128 59.0
296.087979 87.0
296.388089 56.0
297.04284 259.0
297.05633 737.0
297.07492 735.0
297.683071 55.0
298.043182 80.0
298.058412 51.0
298.357822 70.0
299.031673 66.0
299.055393 253.0
299.068943 204.0
299.077423 125.0
300.040465 33.0
301.073036 52.0
301.091736 73.0
302.059728 77.0
302.075048 76.0
302.097178 126.0
302.494028 54.0
303.104319 1156.0
304.049901 44.0
304.068701 92.0
304.104561 41.0
304.793402 30.0
305.080792 2413.0
306.089454 1696.0
307.079176 4169.0
308.073897 4438.0
308.775838 40.0
309.077169 2575.0
309.86299 76.0
310.032 58.0
310.05617 268.0
310.23732 51.0
310.27526 90.0
310.287341 77.0
311.059162 2744.0
312.063803 30.0
312.094963 104.0
312.818774 36.0
313.078725 94.0
313.096065 97.0
313.137655 33.0
313.226065 49.0
314.093556 27.0
314.234187 33.0
315.047418 47.0
315.063078 143.0
315.103088 42.0
316.067169 169.0
316.077629 183.0
317.055451 143.0
317.076381 277.0
317.088591 618.0
318.001552 31.0
318.052243 133.0
318.060973 82.0
318.076693 102.0
318.094173 70.0
319.068084 3168.0
320.059266 232.0
320.076786 970.0
320.367796 63.0
320.537906 33.0
321.078307 230.0
321.088837 1601.0
321.113407 5724.0
322.026889 52.0
322.040959 52.0
322.056799 299.0
322.088449 49.0
322.531619 85.0
322.72343 31.0
323.0702 1784.0
324.889903 56.0
325.045293 46.0
325.080633 91.0
325.195444 52.0
326.035105 40.0
326.045725 58.0
326.089945 30.0
326.973276 31.0
327.056536 38.0
327.990828 56.0
329.0562 26.0
329.08818 63.0
329.11662 59.0
330.082321 45.0
331.090473 494.0
331.104723 1511.0
332.059074 36.0
332.082294 87.0
332.110834 122.0
332.123344 106.0
332.160844 36.0
333.082726 9006.0
334.093647 10585.0
335.104309 6803.0
336.0213 45.0
336.06799 174.0
336.08773 107.0
336.441621 38.0
336.907162 33.0
337.070832 230.0
337.088802 213.0
338.102174 63.0
338.116574 63.0
339.102635 814.0
339.124265 2433.0
339.848056 38.0
340.122627 36.0
340.252717 49.0
341.075418 48.0
341.104348 79.0
341.115208 64.0
341.187568 52.0
341.911749 40.0
342.47715 29.0
343.102881 54.0
343.121041 95.0
344.170663 38.0
345.092694 61.0
345.211005 30.0
346.145366 37.0
347.075487 78.0
347.093738 681.0
348.105579 1936.0
349.113391 32367.0
350.080492 219.0
350.119002 339.0
350.707633 52.0
351.089344 2118.0
351.682455 72.0
352.105125 32.0
352.151085 33.0
352.739586 64.0
353.094777 65.0
353.190517 87.0
353.207087 59.0
353.431727 34.0
353.965998 43.0
355.12625 38.0
355.502961 36.0
355.667351 68.0
356.109041 66.0
357.096893 85.0
357.111693 145.0
357.130213 265.0
357.483884 41.0
357.741394 35.0
359.032166 32.0
359.327336 59.0
359.958987 31.0
361.052679 288.0
361.082459 948.0
361.8852 57.0
363.080762 660.0
363.093822 3135.0
363.870764 48.0
364.667245 57.0
365.084545 178.0
365.108865 1631.0
365.507676 33.0
365.563886 36.0
365.816787 114.0
365.871107 196.0
365.878617 230.0
365.889847 612.0
365.912337 485.0
365.931077 444.0
365.940447 425.0
366.124127 70.0
366.202837 29.0
366.289077 83.0
366.512218 108.0
366.566608 74.0
366.643538 48.0
366.660418 74.0
367.112629 72621.0
368.764331 1689.0
368.822651 1425.0
368.944961 615.0
383.111763 118.0
384.145975 401.0
385.131576 30.0
391.075586 470.0
392.661858 12.0
394.488701 216.0
395.113522 17462.0
396.122833 497.0
396.132593 243.0
396.815305 37.0
412.130698 38.0

