>compound 
>formula C13H16NO4PS
>parentmass 314.061
>ionization [M + H]+
>instrumentation Unknown (LCMS)
>source file:/Users/fanzhoukong/Documents/GitHub/Libgen/data/NIST_MONA/0_unknown_/spectrum.ms
>quality UNKNOWN

>ms2peaks
53.0386 0.280674
61.0106 1.969056
64.9786 0.910449
77.0382 0.410768
81.9815 0.373414
82.9892 0.239082
91.0542 0.278193
93.01 3.059485
95.049 0.860717
96.9506 0.490465
98.9664 0.448555
98.9842 3.284833
105.0335 100.0
107.9844 0.257423
109.0049 1.725597
112.9455 0.134463
112.9999 0.264707
113.9536 11.319156
114.9614 15.037811
116.0495 0.69728
117.0574 0.176489
123.0263 0.220266
123.9796 0.567718
124.9822 0.371738
125.9899 1.515387
126.9977 0.271048
127.0155 1.123792
128.977 0.479541
129.948 0.200831
130.9563 15.609392
131.9639 0.116197
132.0569 0.109502
132.9719 0.193812
133.0106 0.162137
133.0647 0.190679
135.0263 1.707816
136.016 0.55564
137.0056 0.32576
140.977 2.118562
141.9849 13.18835
142.9926 3.017939
144.9719 0.277808
145.0522 0.310035
145.9796 0.12343
146.06 0.437459
146.9875 0.138141
148.9669 0.284663
151.0212 3.66975
152.0109 0.13248
153.0134 0.28692
155.0465 0.110257
158.9876 2.265639
160.0215 3.784255
162.055 5.484164
162.9827 0.139412
164.0473 0.221369
169.0088 0.118658
170.0161 21.078833
171.0239 1.45776
176.0163 0.12973
178.0321 15.749985
187.0189 4.304074
190.0863 2.132259
201.0343 0.126187
206.0636 1.692322
214.9927 0.378719
216.9723 0.394551
234.9825 2.436364
239.9877 0.977304
240.9721 0.648038
252.993 0.124068
257.9984 8.668719
263.0137 0.900059
268.0193 0.10409
269.0033 0.310009
286.0298 2.460151
314.0611 0.461108

